#XDI/1.1  GSE/1.0
# Column.1: energy eV
# Column.2: itrans
# Column.3: i0
# Scan.end_time: 2008-04-10 21:04:37
# Scan.start_time: 2008-04-10 20:46:54
# Element.symbol:  Se
# Element.edge:  K
# Mono.d_spacing:  3.13555
# Mono.name: Si 111
# Sample.temperature: room temperature
# Sample.formula: HgSe
# Sample.name: mercury selenide
# Sample.prep: powder on tape, many layers
# Facility.Name:  APS
# Beamline.Name:  13-BM-D
# Beamline.xray_source:  bending magnet
# Beamline.Storage_Ring_Current: 102.187
# Beamline.I0: N2, 5 nA/V
# Beamline.I1: N2, 20 nA/V
# ScanParameters.E0: 12658.0
# ScanParameters.Legend: Start       Stop       Step       Npts       Time   Kspace?
# ScanParameters.Region1: -150.00    -10.000     5.0000     29.000     2.0000   0
# ScanParameters.Region2: -10.000     30.000    0.25000     161.00     2.0000   0
# ScanParameters.Region3: 2.8061     14.000   0.039978     281.00     2.0000   1
#-------------------------
#  energy  itrans  i0
   12508.000    93560.40    122211.40
   12513.000    92384.40    120694.40
   12518.000    91666.40    119706.40
   12523.000    91607.40    119537.40
   12528.000    91590.40    119188.40
   12533.000    91664.40    118951.40
   12538.000    92111.40    119208.40
   12543.000    92589.40    119547.40
   12548.000    92897.40    119483.40
   12553.000    93138.40    119378.40
   12558.000    93464.40    119397.40
   12563.000    93758.40    119447.40
   12568.000    93902.40    119283.40
   12573.000    93905.40    119167.40
   12578.000    94262.40    119415.40
   12583.000    94377.40    119470.40
   12588.000    93991.40    118956.40
   12593.000    94250.40    119252.40
   12598.000    94325.40    119395.40
   12603.000    94303.40    119475.40
   12608.000    94332.40    119372.40
   12613.000    94230.40    119091.40
   12618.000    94319.40    119118.40
   12623.000    94553.40    119287.40
   12628.000    94636.40    119259.40
   12633.000    94665.40    119137.40
   12638.000    94688.40    119254.40
   12643.000    94470.40    119337.40
   12648.000    93312.40    119182.40
   12648.250    93362.40    119408.40
   12648.500    93341.40    119545.40
   12648.750    93278.40    119596.40
   12649.000    93133.40    119592.40
   12649.250    93092.40    119716.40
   12649.500    92879.40    119691.40
   12649.750    92704.40    119606.40
   12650.000    92487.40    119586.40
   12650.250    92274.40    119601.40
   12650.500    92075.40    119589.40
   12650.750    91751.40    119559.40
   12651.000    91555.40    119588.40
   12651.250    91164.40    119519.40
   12651.500    90753.40    119545.40
   12651.750    90433.40    119577.40
   12652.000    89937.40    119576.40
   12652.250    89508.40    119613.40
   12652.500    88791.40    119545.40
   12652.750    88165.40    119441.40
   12653.000    87251.40    119404.40
   12653.250    86183.40    119459.40
   12653.500    85195.40    119341.40
   12653.750    83711.40    119226.40
   12654.000    82464.40    119308.40
   12654.250    80599.40    119422.40
   12654.500    78401.40    119485.40
   12654.750    76391.40    119442.40
   12655.000    73390.40    119603.40
   12655.250    70718.40    119553.40
   12655.500    66840.40    119498.40
   12655.750    63654.40    119397.40
   12656.000    59250.40    119392.40
   12656.250    55106.40    119431.40
   12656.500    52264.40    119384.40
   12656.750    49211.40    119433.40
   12657.000    47715.40    119347.40
   12657.250    46396.40    119317.40
   12657.500    46031.40    119300.40
   12657.750    46230.40    119292.40
   12658.000    46899.40    119197.40
   12658.250    47640.40    119247.40
   12658.500    48677.40    119193.40
   12658.750    49462.40    119250.40
   12659.000    50353.40    119311.40
   12659.250    51057.40    119327.40
   12659.500    51367.40    119224.40
   12659.750    51654.40    119198.40
   12660.000    51795.40    119227.40
   12660.250    51854.40    119187.40
   12660.500    51860.40    119154.40
   12660.750    51871.40    119160.40
   12661.000    51834.40    119096.40
   12661.250    51863.40    119168.40
   12661.500    51928.40    119190.40
   12661.750    51997.40    119122.40
   12662.000    52187.40    119067.40
   12662.250    52422.40    119072.40
   12662.500    52814.40    119138.40
   12662.750    53279.40    119102.40
   12663.000    53696.40    119132.40
   12663.250    54274.40    119022.40
   12663.500    54707.40    118940.40
   12663.750    55414.40    119032.40
   12664.000    56169.40    119104.40
   12664.250    56725.40    119158.40
   12664.500    57407.40    119068.40
   12664.750    57967.40    118988.40
   12665.000    58671.40    118933.40
   12665.250    59255.40    119040.40
   12665.500    59975.40    119071.40
   12665.750    60489.40    118959.40
   12666.000    60808.40    118986.40
   12666.250    61156.40    119020.40
   12666.500    61293.40    119041.40
   12666.750    61324.40    119002.40
   12667.000    61290.40    119016.40
   12667.250    61210.40    119173.40
   12667.500    61167.40    119573.40
   12667.750    60939.40    119502.40
   12668.000    60615.40    119533.40
   12668.250    60352.40    119512.40
   12668.500    59957.40    119358.40
   12668.750    59742.40    119415.40
   12669.000    59430.40    119461.40
   12669.250    59172.40    119528.40
   12669.500    58995.40    119481.40
   12669.750    58791.40    119390.40
   12670.000    58713.40    119407.40
   12670.250    58709.40    119457.40
   12670.500    58718.40    119427.40
   12670.750    58783.40    119354.40
   12671.000    58871.40    119310.40
   12671.250    59050.40    119364.40
   12671.500    59247.40    119367.40
   12671.750    59420.40    119431.40
   12672.000    59686.40    119443.40
   12672.250    59831.40    119344.40
   12672.500    60063.40    119297.40
   12672.750    60288.40    119361.40
   12673.000    60420.40    119229.40
   12673.250    60630.40    119199.40
   12673.500    60758.40    119214.40
   12673.750    60928.40    119282.40
   12674.000    61035.40    119305.40
   12674.250    61144.40    119332.40
   12674.500    61152.40    119191.40
   12674.750    61172.40    119219.40
   12675.000    61198.40    119256.40
   12675.250    61178.40    119260.40
   12675.500    61103.40    119248.40
   12675.750    61007.40    119145.40
   12676.000    60856.40    119032.40
   12676.250    60745.40    119063.40
   12676.500    60691.40    119130.40
   12676.750    60524.40    119078.40
   12677.000    60459.40    119167.40
   12677.250    60306.40    119196.40
   12677.500    60221.40    119223.40
   12677.750    60017.40    119123.40
   12678.000    59864.40    119111.40
   12678.250    59736.40    119112.40
   12678.500    59547.40    119034.40
   12678.750    59411.40    118985.40
   12679.000    59304.40    119038.40
   12679.250    59236.40    119105.40
   12679.500    59105.40    119059.40
   12679.750    59066.40    119125.40
   12680.000    59012.40    119159.40
   12680.250    58957.40    119139.40
   12680.500    58934.40    119167.40
   12680.750    59155.40    119634.40
   12681.000    59147.40    119646.40
   12681.250    59136.40    119648.40
   12681.500    59099.40    119595.40
   12681.750    59075.40    119608.40
   12682.000    59071.40    119610.40
   12682.250    59036.40    119513.40
   12682.500    58976.40    119441.40
   12682.750    59055.40    119623.40
   12683.000    58986.40    119540.40
   12683.250    58976.40    119559.40
   12683.500    58916.40    119479.40
   12683.750    58874.40    119425.40
   12684.000    58817.40    119414.40
   12684.250    58817.40    119484.40
   12684.500    58822.40    119574.40
   12684.750    58756.40    119429.40
   12685.000    58727.40    119480.40
   12685.250    58716.40    119460.40
   12685.500    58757.40    119547.40
   12685.750    58710.40    119465.40
   12686.000    58686.40    119416.40
   12686.250    58714.40    119407.40
   12686.500    58725.40    119456.40
   12686.750    58720.40    119453.40
   12687.000    58685.40    119287.40
   12687.250    58698.40    119277.40
   12687.500    58757.40    119334.40
   12687.750    58783.40    119371.40
   12688.000    58772.40    119318.40
   12688.860    58884.40    119230.40
   12689.730    59059.40    119273.40
   12690.620    59235.40    119259.40
   12691.520    59423.40    119262.40
   12692.430    59609.40    119217.40
   12693.350    59784.40    119215.40
   12694.280    60016.40    119247.40
   12695.230    60171.40    119130.40
   12696.190    60286.40    118992.40
   12697.160    60467.40    118941.40
   12698.140    60900.40    119327.40
   12699.130    61133.40    119333.40
   12700.140    61275.40    119192.40
   12701.160    61396.40    119193.40
   12702.190    61498.40    119253.40
   12703.240    61561.40    119276.40
   12704.290    61455.40    119109.40
   12705.360    61395.40    119093.40
   12706.440    61317.40    119060.40
   12707.530    61198.40    119073.40
   12708.640    61106.40    119101.40
   12709.750    60967.40    119053.40
   12710.880    60837.40    119128.40
   12712.020    60873.40    119506.40
   12713.180    60863.40    119696.40
   12714.340    60768.40    119722.40
   12715.520    60633.40    119589.40
   12716.710    60569.40    119553.40
   12717.910    60516.40    119507.40
   12719.130    60557.40    119644.40
   12720.350    60623.40    119656.40
   12721.590    60659.40    119594.40
   12722.840    60719.40    119445.40
   12724.100    60777.40    119301.40
   12725.380    60957.40    119455.40
   12726.670    61086.40    119502.40
   12727.960    61158.40    119451.40
   12729.280    61259.40    119497.40
   12730.600    61351.40    119538.40
   12731.940    61427.40    119534.40
   12733.280    61452.40    119405.40
   12734.640    61533.40    119404.40
   12736.020    61571.40    119351.40
   12737.400    61609.40    119358.40
   12738.800    61546.40    119168.40
   12740.210    61435.40    118937.40
   12741.630    62009.40    119876.40
   12743.060    61946.40    119570.40
   12744.510    61935.40    119367.40
   12745.960    61992.40    119291.40
   12747.430    62024.40    119262.40
   12748.920    62080.40    119256.40
   12750.410    62149.40    119343.40
   12751.920    62178.40    119379.40
   12753.440    62158.40    119273.40
   12754.970    62180.40    119306.40
   12756.510    62135.40    119171.40
   12758.060    62123.40    119112.40
   12759.630    62173.40    119229.40
   12761.210    62208.40    119331.40
   12762.800    62203.40    119286.40
   12764.410    62196.40    119243.40
   12766.020    62210.40    119256.40
   12767.650    62230.40    119209.40
   12769.290    62269.40    119281.40
   12770.940    62153.40    119034.40
   12772.610    61844.40    118473.40
   12774.290    62445.40    119530.40
   12775.970    62398.40    119239.40
   12777.680    62380.40    119054.40
   12779.390    62441.40    119109.40
   12781.110    62489.40    119077.40
   12782.850    62529.40    119053.40
   12784.600    62555.40    119007.40
   12786.360    62578.40    118984.40
   12788.140    62617.40    118983.40
   12789.920    62786.40    119295.40
   12791.720    63029.40    119687.40
   12793.540    63073.40    119710.40
   12795.360    63075.40    119641.40
   12797.190    63062.40    119538.40
   12799.040    63049.40    119454.40
   12800.900    63011.40    119359.40
   12802.770    62717.40    118897.40
   12804.660    63474.40    120167.40
   12806.550    63410.40    119850.40
   12808.460    63381.40    119632.40
   12810.380    63444.40    119558.40
   12812.310    63562.40    119598.40
   12814.260    63644.40    119599.40
   12816.210    63719.40    119531.40
   12818.180    63824.40    119549.40
   12820.170    63933.40    119541.40
   12822.160    63959.40    119437.40
   12824.170    64048.40    119447.40
   12826.180    64159.40    119529.40
   12828.210    64205.40    119497.40
   12830.250    64282.40    119540.40
   12832.310    64268.40    119436.40
   12834.380    64287.40    119415.40
   12836.460    64304.40    119408.40
   12838.550    64160.40    119223.40
   12840.650    64120.40    119059.40
   12842.760    64360.40    119565.40
   12844.890    64285.40    119421.40
   12847.030    64255.40    119346.40
   12849.180    64277.40    119385.40
   12851.350    64297.40    119391.40
   12853.520    64322.40    119408.40
   12855.710    63844.40    118557.40
   12857.910    64628.40    119838.40
   12860.130    64564.40    119589.40
   12862.350    64568.40    119461.40
   12864.590    64578.40    119360.40
   12866.840    64483.40    119104.40
   12869.100    64299.40    118587.40
   12871.370    64803.40    119397.40
   12873.660    64922.40    119473.40
   12875.960    64927.40    119344.40
   12878.270    65043.40    119394.40
   12880.590    65128.40    119352.40
   12882.920    65119.40    119161.40
   12885.270    65208.40    119109.40
   12887.630    65311.40    119146.40
   12890.000    65434.40    119191.40
   12892.380    65501.40    119117.40
   12894.780    65586.40    119056.40
   12897.190    65686.40    119062.40
   12899.610    65801.40    119136.40
   12902.040    65943.40    119207.40
   12904.480    66304.40    119789.40
   12906.940    66375.40    119814.40
   12909.410    66383.40    119674.40
   12911.890    66421.40    119632.40
   12914.380    66425.40    119569.40
   12916.880    66520.40    119689.40
   12919.400    66554.40    119691.40
   12921.930    66609.40    119775.40
   12924.470    66616.40    119699.40
   12927.030    66616.40    119608.40
   12929.590    66641.40    119598.40
   12932.170    66685.40    119626.40
   12934.760    66662.40    119487.40
   12937.360    66776.40    119625.40
   12939.980    66836.40    119607.40
   12942.610    66778.40    119439.40
   12945.240    66945.40    119564.40
   12947.900    67054.40    119619.40
   12950.560    67155.40    119666.40
   12953.230    67206.40    119571.40
   12955.920    67257.40    119463.40
   12958.620    67362.40    119518.40
   12961.330    67484.40    119592.40
   12964.060    67552.40    119504.40
   12966.790    67547.40    119371.40
   12969.540    67623.40    119282.40
   12972.300    67790.40    119435.40
   12975.080    67908.40    119523.40
   12977.860    67977.40    119433.40
   12980.660    68039.40    119381.40
   12983.470    68073.40    119270.40
   12986.290    68170.40    119308.40
   12989.130    68212.40    119229.40
   12991.970    68188.40    119135.40
   12994.830    68545.40    119620.40
   12997.700    68565.40    119519.40
   13000.580    68576.40    119404.40
   13003.480    68600.40    119304.40
   13006.380    68688.40    119396.40
   13009.300    68736.40    119334.40
   13012.230    68779.40    119264.40
   13015.180    68820.40    119209.40
   13018.130    68845.40    119259.40
   13021.100    69141.40    119514.40
   13024.080    69155.40    119339.40
   13027.070    69188.40    119248.40
   13030.080    69222.40    119183.40
   13033.090    69385.40    119323.40
   13036.120    69415.40    119164.40
   13039.160    69488.40    119137.40
   13042.220    69609.40    119172.40
   13045.280    69729.40    119206.40
   13048.360    69816.40    119216.40
   13051.450    70197.40    119705.40
   13054.550    70335.40    119775.40
   13057.670    70422.40    119751.40
   13060.790    70517.40    119698.40
   13063.930    70626.40    119701.40
   13067.080    70678.40    119681.40
   13070.240    70785.40    119698.40
   13073.420    70864.40    119677.40
   13076.600    70969.40    119694.40
   13079.800    71082.40    119733.40
   13083.010    71145.40    119678.40
   13086.240    71182.40    119589.40
   13089.470    71203.40    119482.40
   13092.720    71299.40    119440.40
   13095.980    71499.40    119728.40
   13099.250    71579.40    119698.40
   13102.540    71652.40    119670.40
   13105.840    71764.40    119753.40
   13109.140    71858.40    119784.40
   13112.470    71916.40    119713.40
   13115.800    71967.40    119599.40
   13119.140    72053.40    119632.40
   13122.500    72148.40    119625.40
   13125.870    72191.40    119516.40
   13129.250    72270.40    119507.40
   13132.650    72323.40    119429.40
   13136.050    72489.40    119498.40
   13139.470    72594.40    119488.40
   13142.900    72714.40    119502.40
   13146.350    72861.40    119640.40
   13149.800    72891.40    119391.40
   13153.270    72973.40    119344.40
   13156.750    73141.40    119437.40
   13160.240    73318.40    119559.40
   13163.740    73359.40    119457.40
   13167.260    73433.40    119384.40
   13170.790    73536.40    119346.40
   13174.330    73702.40    119480.40
   13177.880    73850.40    119518.40
   13181.440    73888.40    119442.40
   13185.020    73922.40    119288.40
   13188.610    74095.40    119390.40
   13192.210    74194.40    119407.40
   13195.820    74275.40    119359.40
   13199.450    74391.40    119413.40
   13203.090    74474.40    119367.40
   13206.740    74512.40    119270.40
   13210.400    74585.40    119234.40
   13214.070    74689.40    119262.40
   13217.760    74424.40    118857.40
   13221.460    75099.40    119660.40
   13225.170    75061.40    119392.40
   13228.890    75069.40    119248.40
   13232.630    75373.40    119591.40
   13236.370    75676.40    119902.40
   13240.130    75694.40    119713.40
   13243.910    75791.40    119702.40
   13247.690    75951.40    119785.40
   13251.490    75975.40    119661.40
   13255.290    76056.40    119637.40
   13259.110    76120.40    119604.40
   13262.950    76093.40    119383.40
   13266.790    75952.40    119078.40
   13270.650    75049.40    117857.40
   13274.520    74565.40    117284.40
   13278.400    75677.40    119054.40
   13282.290    75879.40    119243.40
   13286.200    75813.40    119055.40
   13290.110    76254.40    119586.40
   13294.040    76539.40    119872.40
   13297.990    76453.40    119580.40
   13301.940    76456.40    119454.40
   13305.910    76826.40    119800.40
   13309.890    76990.40    119841.40
   13313.880    77128.40    119899.40
   13317.880    77141.40    119668.40
   13321.900    77111.40    119446.40
   13325.920    77210.40    119461.40
   13329.960    77398.40    119565.40
   13334.010    77632.40    119711.40
   13338.080    77853.40    119848.40
   13342.150    77969.40    119808.40
   13346.240    78153.40    119864.40
   13350.340    78227.40    119735.40
   13354.460    78338.40    119679.40
   13358.580    78363.40    119519.40
   13362.720    78409.40    119430.40
   13366.870    78491.40    119358.40
   13371.030    78699.40    119505.40
   13375.200    78847.40    119590.40
   13379.390    78963.40    119548.40
   13383.580    79046.40    119451.40
   13387.790    79074.40    119260.40
   13392.020    79308.40    119455.40
   13396.250    79515.40    119529.40
   13400.500    79647.40    119493.40
   13404.760    79773.40    119470.40
