#XDI/1.1  GSE/1.0
# Column.1: energy eV
# Column.2: itrans
# Column.3: i0
# Scan.end_time: 2008-04-10 21:58:49
# Scan.start_time: 2008-04-10 21:41:07
# Element.symbol:  Se
# Element.edge:  K
# Mono.d_spacing:  3.13555
# Mono.name: Si 111
# Sample.temperature: room temperature
# Sample.formula: Na2SeO4
# Sample.name: sodium selenate
# Sample.prep: powder on tape, many layers
# Facility.Name:  APS
# Beamline.Name:  13-BM-D
# Beamline.xray_source:  bending magnet
# Beamline.Storage_Ring_Current: 102.057
# Beamline.I0: N2, 5 nA/V
# Beamline.I1: N2, 20 nA/V
# ScanParameters.E0: 12658.0
# ScanParameters.Legend: Start       Stop       Step       Npts       Time   Kspace?
# ScanParameters.Region1: -150.00    -10.000     5.0000     29.000     2.0000   0
# ScanParameters.Region2: -10.000     30.000    0.25000     161.00     2.0000   0
# ScanParameters.Region3: 2.8061     14.000   0.039978     281.00     2.0000   1
#-------------------------
#  energy  itrans  i0
   12508.000   552622.40    120503.40
   12513.000   550000.40    119869.40
   12518.000   549528.40    119687.40
   12523.000   549295.40    119528.40
   12528.000   548680.40    119305.40
   12533.000   548224.40    119114.40
   12538.000   547973.40    118954.40
   12543.000   549242.40    119128.40
   12548.000   550330.40    119261.40
   12553.000   550180.40    119194.40
   12558.000   551116.40    119301.40
   12563.000   551901.40    119383.40
   12568.000   551532.40    119208.40
   12573.000   550707.40    118960.40
   12578.000   552334.40    119207.40
   12583.000   553243.40    119334.40
   12588.000   551724.40    118904.40
   12593.000   553476.40    119196.40
   12598.000   554088.40    119265.40
   12603.000   554702.40    119305.40
   12608.000   554468.40    119213.40
   12613.000   553268.40    118864.40
   12618.000   554215.40    118998.40
   12623.000   555719.40    119270.40
   12628.000   555725.40    119240.40
   12633.000   554876.40    118962.40
   12638.000   555190.40    119060.40
   12643.000   555487.40    119152.40
   12648.000   554115.40    119066.40
   12648.250   555288.40    119359.40
   12648.500   556130.40    119561.40
   12648.750   555537.40    119453.40
   12649.000   555435.40    119456.40
   12649.250   555183.40    119373.40
   12649.500   555248.40    119435.40
   12649.750   555802.40    119566.40
   12650.000   555401.40    119496.40
   12650.250   555311.40    119535.40
   12650.500   555053.40    119471.40
   12650.750   554530.40    119402.40
   12651.000   554102.40    119318.40
   12651.250   553674.40    119265.40
   12651.500   554100.40    119415.40
   12651.750   554196.40    119448.40
   12652.000   553810.40    119391.40
   12652.250   553539.40    119352.40
   12652.500   552188.40    119120.40
   12652.750   554955.40    119762.40
   12653.000   555816.40    120004.40
   12653.250   555179.40    119939.40
   12653.500   554857.40    119896.40
   12653.750   553888.40    119754.40
   12654.000   553468.40    119698.40
   12654.250   553150.40    119709.40
   12654.500   553391.40    119809.40
   12654.750   553616.40    119928.40
   12655.000   553916.40    120097.40
   12655.250   553059.40    119993.40
   12655.500   552312.40    119910.40
   12655.750   551790.40    119879.40
   12656.000   550935.40    119859.40
   12656.250   550381.40    119826.40
   12656.500   549653.40    119785.40
   12656.750   548492.40    119723.40
   12657.000   547722.40    119683.40
   12657.250   547206.40    119741.40
   12657.500   546579.40    119771.40
   12657.750   545372.40    119738.40
   12658.000   544210.40    119721.40
   12658.250   543067.40    119680.40
   12658.500   541466.40    119643.40
   12658.750   540448.40    119651.40
   12659.000   539345.40    119769.40
   12659.250   537026.40    119682.40
   12659.500   535650.40    119714.40
   12659.750   532935.40    119639.40
   12660.000   530820.40    119650.40
   12660.250   527710.40    119679.40
   12660.500   524744.40    119615.40
   12660.750   520391.40    119653.40
   12661.000   514899.40    119629.40
   12661.250   510121.40    119648.40
   12661.500   502763.40    119662.40
   12661.750   495684.40    119569.40
   12662.000   485299.40    119596.40
   12662.250   476742.40    119583.40
   12662.500   463362.40    119531.40
   12662.750   447096.40    119557.40
   12663.000   433592.40    119553.40
   12663.250   412048.40    119485.40
   12663.500   396015.40    119677.40
   12663.750   370603.40    119560.40
   12664.000   344737.40    119504.40
   12664.250   326637.40    119430.40
   12664.500   304397.40    119435.40
   12664.750   291511.40    119562.40
   12665.000   279939.40    119519.40
   12665.250   276082.40    119400.40
   12665.500   278709.40    119358.40
   12665.750   289004.40    119364.40
   12666.000   301640.40    119634.40
   12666.250   322888.40    120068.40
   12666.500   339170.40    119954.40
   12666.750   361689.40    119932.40
   12667.000   377321.40    119928.40
   12667.250   397459.40    119846.40
   12667.500   413012.40    119961.40
   12667.750   422939.40    119889.40
   12668.000   434022.40    119900.40
   12668.250   440326.40    120016.40
   12668.500   446636.40    119972.40
   12668.750   450603.40    119994.40
   12669.000   454691.40    119934.40
   12669.250   457512.40    119728.40
   12669.500   460055.40    119822.40
   12669.750   463139.40    119953.40
   12670.000   464813.40    119963.40
   12670.250   466203.40    119883.40
   12670.500   466761.40    119761.40
   12670.750   467621.40    119798.40
   12671.000   468099.40    119881.40
   12671.250   468500.40    120020.40
   12671.500   467886.40    119990.40
   12671.750   466507.40    119786.40
   12672.000   465314.40    119677.40
   12672.250   464825.40    119738.40
   12672.500   464358.40    119854.40
   12672.750   463748.40    119882.40
   12673.000   462702.40    119775.40
   12673.250   461866.40    119689.40
   12673.500   461856.40    119748.40
   12673.750   461486.40    119618.40
   12674.000   462081.40    119714.40
   12674.250   462890.40    119686.40
   12674.500   464018.40    119704.40
   12674.750   465369.40    119788.40
   12675.000   466615.40    119726.40
   12675.250   467762.40    119724.40
   12675.500   469067.40    119681.40
   12675.750   469588.40    119569.40
   12676.000   470853.40    119624.40
   12676.250   471460.40    119605.40
   12676.500   472100.40    119678.40
   12676.750   471800.40    119540.40
   12677.000   471775.40    119578.40
   12677.250   472037.40    119711.40
   12677.500   471253.40    119643.40
   12677.750   469905.40    119564.40
   12678.000   468406.40    119535.40
   12678.250   467013.40    119506.40
   12678.500   464727.40    119433.40
   12678.750   463339.40    119533.40
   12679.000   460861.40    119522.40
   12679.250   459790.40    119718.40
   12679.500   459062.40    120219.40
   12679.750   457250.40    120123.40
   12680.000   455399.40    120146.40
   12680.250   453854.40    120070.40
   12680.500   452884.40    120008.40
   12680.750   452340.40    120018.40
   12681.000   452120.40    119948.40
   12681.250   452661.40    120058.40
   12681.500   453089.40    120058.40
   12681.750   453582.40    120049.40
   12682.000   454049.40    119952.40
   12682.250   454465.40    119908.40
   12682.500   455522.40    119948.40
   12682.750   456302.40    119959.40
   12683.000   457553.40    120026.40
   12683.250   458190.40    119988.40
   12683.500   459192.40    119994.40
   12683.750   459866.40    119914.40
   12684.000   460926.40    119947.40
   12684.250   461595.40    119858.40
   12684.500   462183.40    119802.40
   12684.750   463461.40    119920.40
   12685.000   463998.40    119876.40
   12685.250   465001.40    119904.40
   12685.500   465354.40    119841.40
   12685.750   465669.40    119745.40
   12686.000   466527.40    119821.40
   12686.250   466947.40    119801.40
   12686.500   467683.40    119844.40
   12686.750   468390.40    119921.40
   12687.000   468411.40    119767.40
   12687.250   468620.40    119675.40
   12687.500   469104.40    119654.40
   12687.750   469899.40    119697.40
   12688.000   470628.40    119772.40
   12688.860   472722.40    119736.40
   12689.730   475285.40    119703.40
   12690.620   477566.40    119651.40
   12691.520   479872.40    119574.40
   12692.430   482461.40    119621.40
   12693.350   484731.40    119606.40
   12694.280   486839.40    119646.40
   12695.230   488410.40    119601.40
   12696.190   489417.40    119524.40
   12697.160   490514.40    119476.40
   12698.140   493276.40    119821.40
   12699.130   494128.40    119722.40
   12700.140   494849.40    119540.40
   12701.160   496088.40    119541.40
   12702.190   497483.40    119583.40
   12703.240   498323.40    119592.40
   12704.290   498755.40    119584.40
   12705.360   498630.40    119614.40
   12706.440   499764.40    120038.40
   12707.530   497777.40    119950.40
   12708.640   496207.40    120060.40
   12709.750   493955.40    120017.40
   12710.880   492246.40    120090.40
   12712.020   490130.40    119962.40
   12713.180   489265.40    119954.40
   12714.340   489413.40    120122.40
   12715.520   488729.40    120060.40
   12716.710   488444.40    120100.40
   12717.910   487847.40    120000.40
   12719.130   487818.40    120009.40
   12720.350   487853.40    120138.40
   12721.590   486728.40    120038.40
   12722.840   485293.40    119949.40
   12724.100   484043.40    119888.40
   12725.380   483629.40    120018.40
   12726.670   483892.40    120143.40
   12727.960   483617.40    120032.40
   12729.280   483237.40    119884.40
   12730.600   483254.40    119884.40
   12731.940   483223.40    119908.40
   12733.280   482751.40    119964.40
   12734.640   481943.40    119948.40
   12736.020   480167.40    119757.40
   12737.400   480046.40    119962.40
   12738.800   478151.40    119756.40
   12740.210   475427.40    119327.40
   12741.630   478722.40    120363.40
   12743.060   477319.40    120115.40
   12744.510   476488.40    119890.40
   12745.960   475890.40    119722.40
   12747.430   476383.40    119741.40
   12748.920   477503.40    119942.40
   12750.410   477241.40    119810.40
   12751.920   477356.40    119801.40
   12753.440   477467.40    119716.40
   12754.970   477627.40    119664.40
   12756.510   478498.40    119737.40
   12758.060   478564.40    119654.40
   12759.630   478887.40    119605.40
   12761.210   479621.40    119673.40
   12762.800   480124.40    119641.40
   12764.410   480643.40    119649.40
   12766.020   481452.40    119728.40
   12767.650   481258.40    119593.40
   12769.290   481971.40    119672.40
   12770.940   481631.40    119486.40
   12772.610   479365.40    118862.40
   12774.290   483937.40    119927.40
   12775.970   483533.40    119737.40
   12777.680   483462.40    119637.40
   12779.390   483844.40    119581.40
   12781.110   486022.40    119910.40
   12782.850   488267.40    120239.40
   12784.600   488551.40    120032.40
   12786.360   489453.40    120054.40
   12788.140   490497.40    120134.40
   12789.920   490961.40    120087.40
   12791.720   492061.40    120223.40
   12793.540   492166.40    120138.40
   12795.360   492486.40    120074.40
   12797.190   492563.40    120006.40
   12799.040   492758.40    119990.40
   12800.900   493085.40    119982.40
   12802.770   490857.40    119390.40
   12804.660   496164.40    120616.40
   12806.550   494889.40    120292.40
   12808.460   494077.40    120088.40
   12810.380   493902.40    120083.40
   12812.310   493225.40    119948.40
   12814.260   492918.40    119883.40
   12816.210   493172.40    119998.40
   12818.180   492873.40    119952.40
   12820.170   493159.40    120042.40
   12822.160   492494.40    119918.40
   12824.170   492281.40    119901.40
   12826.180   492507.40    119971.40
   12828.210   492210.40    119881.40
   12830.250   491980.40    119823.40
   12832.310   492035.40    119840.40
   12834.380   491804.40    119800.40
   12836.460   491960.40    119827.40
   12838.550   490926.40    119622.40
   12840.650   489794.40    119388.40
   12842.760   492493.40    120100.40
   12844.890   491610.40    119869.40
   12847.030   491145.40    119788.40
   12849.180   491678.40    119843.40
   12851.350   491503.40    119803.40
   12853.520   491705.40    119844.40
   12855.710   488779.40    119154.40
   12857.910   493229.40    120209.40
   12860.130   492226.40    119988.40
   12862.350   491766.40    119829.40
   12864.590   491949.40    119796.40
   12866.840   491126.40    119539.40
   12869.100   489041.40    118998.40
   12871.370   492964.40    119914.40
   12873.660   492581.40    119788.40
   12875.960   492009.40    119631.40
   12878.270   492867.40    119807.40
   12880.590   492525.40    119675.40
   12882.920   492437.40    119555.40
   12885.270   492964.40    119633.40
   12887.630   492999.40    119570.40
   12890.000   493446.40    119643.40
   12892.380   493732.40    119616.40
   12894.780   493977.40    119618.40
   12897.190   494381.40    119655.40
   12899.610   494520.40    119543.40
   12902.040   495087.40    119584.40
   12904.480   495742.40    119615.40
   12906.940   496050.40    119580.40
   12909.410   496579.40    119602.40
   12911.890   496641.40    119478.40
   12914.380   496888.40    119447.40
   12916.880   497391.40    119487.40
   12919.400   497717.40    119487.40
   12921.930   497491.40    119376.40
   12924.470   498008.40    119442.40
   12927.030   498661.40    119524.40
   12929.590   499349.40    119655.40
   12932.170   498629.40    119391.40
   12934.760   497870.40    119214.40
   12937.360   499031.40    119413.40
   12939.980   499074.40    119369.40
   12942.610   498863.40    119253.40
   12945.240   499651.40    119362.40
   12947.900   499624.40    119300.40
   12950.560   500346.40    119448.40
   12953.230   500667.40    119457.40
   12955.920   501243.40    119541.40
   12958.620   500374.40    119309.40
   12961.330   500492.40    119289.40
   12964.060   500881.40    119342.40
   12966.790   500904.40    119286.40
   12969.540   501265.40    119318.40
   12972.300   501367.40    119294.40
   12975.080   501433.40    119275.40
   12977.860   501522.40    119258.40
   12980.660   502038.40    119361.40
   12983.470   501834.40    119295.40
   12986.290   501991.40    119287.40
   12989.130   501849.40    119183.40
   12991.970   500992.40    118961.40
   12994.830   502874.40    119366.40
   12997.700   503244.40    119404.40
   13000.580   502828.40    119287.40
   13003.480   502723.40    119242.40
   13006.380   502773.40    119221.40
   13009.300   503159.40    119256.40
   13012.230   502809.40    119105.40
   13015.180   502823.40    119033.40
   13018.130   502556.40    118920.40
   13021.100   504278.40    119269.40
   13024.080   504254.40    119196.40
   13027.070   504132.40    119132.40
   13030.080   504149.40    119087.40
   13033.090   504395.40    119079.40
   13036.120   506978.40    119614.40
   13039.160   507190.40    119573.40
   13042.220   508037.40    119725.40
   13045.280   508068.40    119664.40
   13048.360   507665.40    119527.40
   13051.450   508052.40    119531.40
   13054.550   508627.40    119612.40
   13057.670   509397.40    119692.40
   13060.790   510011.40    119740.40
   13063.930   509668.40    119583.40
   13067.080   510178.40    119632.40
   13070.240   510193.40    119562.40
   13073.420   509595.40    119352.40
   13076.600   510175.40    119397.40
   13079.800   510577.40    119399.40
   13083.010   511404.40    119510.40
   13086.240   511662.40    119472.40
   13089.470   511300.40    119352.40
   13092.720   512083.40    119473.40
   13095.980   512156.40    119398.40
   13099.250   512611.40    119443.40
   13102.540   512861.40    119426.40
   13105.840   513377.40    119463.40
   13109.140   513413.40    119410.40
   13112.470   513554.40    119360.40
   13115.800   513344.40    119259.40
   13119.140   514507.40    119438.40
   13122.500   514592.40    119402.40
   13125.870   514432.40    119299.40
   13129.250   515056.40    119370.40
   13132.650   514998.40    119325.40
   13136.050   515761.40    119414.40
   13139.470   515917.40    119396.40
   13142.900   516181.40    119416.40
   13146.350   516526.40    119423.40
   13149.800   516353.40    119293.40
   13153.270   516577.40    119306.40
   13156.750   516453.40    119202.40
   13160.240   516718.40    119192.40
   13163.740   517323.40    119290.40
   13167.260   517292.40    119253.40
   13170.790   517143.40    119156.40
   13174.330   517808.40    119229.40
   13177.880   517859.40    119181.40
   13181.440   518191.40    119187.40
   13185.020   518090.40    119095.40
   13188.610   518891.40    119254.40
   13192.210   519965.40    119433.40
   13195.820   519311.40    119183.40
   13199.450   518870.40    119033.40
   13203.090   519783.40    119172.40
   13206.740   520026.40    119153.40
   13210.400   520223.40    119153.40
   13214.070   522010.40    119504.40
   13217.760   521335.40    119258.40
   13221.460   525279.40    120123.40
   13225.170   524080.40    119729.40
   13228.890   523942.40    119667.40
   13232.630   524570.40    119717.40
   13236.370   525182.40    119797.40
   13240.130   525218.40    119746.40
   13243.910   524924.40    119618.40
   13247.690   525159.40    119575.40
   13251.490   525667.40    119610.40
   13255.290   525207.40    119445.40
   13259.110   525246.40    119377.40
   13262.950   525328.40    119291.40
   13266.790   524127.40    118957.40
   13270.650   518970.40    117721.40
   13274.520   516588.40    117099.40
   13278.400   525317.40    118992.40
   13282.290   526192.40    119093.40
   13286.200   524852.40    118734.40
   13290.110   527854.40    119314.40
   13294.040   529385.40    119610.40
   13297.990   528977.40    119414.40
   13301.940   529026.40    119358.40
   13305.910   530658.40    119656.40
   13309.890   530863.40    119603.40
   13313.880   531025.40    119580.40
   13317.880   530642.40    119426.40
   13321.900   530679.40    119374.40
   13325.920   530998.40    119330.40
   13329.960   531448.40    119364.40
   13334.010   532853.40    119598.40
   13338.080   532895.40    119551.40
   13342.150   533661.40    119613.40
   13346.240   533817.40    119612.40
   13350.340   534153.40    119590.40
   13354.460   534148.40    119550.40
   13358.580   533841.40    119399.40
   13362.720   533926.40    119340.40
   13366.870   534454.40    119359.40
   13371.030   534431.40    119303.40
   13375.200   534662.40    119288.40
   13379.390   534767.40    119253.40
   13383.580   534999.40    119233.40
   13387.790   535493.40    119263.40
   13392.020   535907.40    119316.40
   13396.250   537126.40    119511.40
   13400.500   537277.40    119443.40
   13404.760   536947.40    119302.40
