#XDI/1.1  GSE/1.0
# Column.1: energy eV
# Column.2: itrans
# Column.3: i0
# Scan.end_time: 2008-04-10 18:40:50
# Scan.start_time: 2008-04-10 18:23:07
# Element.symbol:  Se
# Element.edge:  K
# Facility.Name:  APS
# Beamline.Name:  13-BM-D
# Beamline.xray_source:  bending magnet
# Mono.dspacing:  3.13555
# Mono.name: Si 111
# Beamline.Storage_Ring_Current: 102.429 || S:SRcurrentAI.VAL
# Beamline.FOE_Mono_angle_readback: 9.0947 || 13BMA:m17.RBV
# Beamline.Mono_Energy_drive_val: 12508.0000 || 13BMA:E:Energy.VAL
# Beamline.Mono_Energy_readback: 12503.0242 || 13BMA:E:E_RBV
# Beamline.Mono_Beam_Offset: 20.0000 || 13BMA:E:height.VAL
# Beamline.I0_sensitivity_value: 5 || 13BMD:A3sens_num.VAL
# Beamline.I0_sensitivity_value: nA/V || 13BMD:A3sens_unit.VAL
# Beamline.I1_sensitivity_value: 20 || 13BMD:A2sens_num.VAL
# Beamline.I1_sensitivity_value: nA/V || 13BMD:A2sens_unit.VAL
# Beamline.FOE_Mono_Yout: 10.4439 || 13BMA:m10.VAL
# Beamline.FOE_Mono_Yin: 10.6474 || 13BMA:m11.VAL
# Beamline.FOE_Mono_Yup: 9.7047 || 13BMA:m12.VAL
# Beamline.FOE_Mono_Cage_Y: 0.000 || 13BMA:m13.VAL
# Beamline.FOE_Mono_Z: 64.134 || 13BMA:m14.VAL
# Beamline.FOE_Mono_angle: 9.0947 || 13BMA:m17.VAL
# Beamline.BMD_Horiz_Width: 5.000 || 13BMD:BMDHt2.C
# Beamline.BMD_Horiz_Center: -2.000 || 13BMD:BMDHt2.D
# Beamline.BMD_Vertical_Width: 0.500 || 13BMD:BMDVt2.C
# Beamline.BMD_Vertical_Center: -19.950 || 13BMD:BMDVt2.D
# Beamline.Sample_X: 326.174 || 13BMD:m70.VAL
# Beamline.Sample_Z__focus: 25.652 || 13BMD:m33.VAL
# Beamline.Sample_Y__height: 34.616 || 13BMD:m34.VAL
# ScanParameters.Start: Scan.Member: Value
# ScanParameters.E0: 12658.0
# ScanParameters.Legend: Start       Stop       Step       Npts       Time   Kspace?
# ScanParameters.Region1: -150.00    -10.000     5.0000     29.000     2.0000   0
# ScanParameters.Region2: -10.000     30.000    0.25000     161.00     2.0000   0
# ScanParameters.Region3: 2.8061     14.000   0.039978     281.00     2.0000   1
# ScanParameters.End: here
#-------------------------
#  energy  itrans  i0
   12508.000   478762.40    122536.40 
   12513.000   472473.40    120861.40 
   12518.000   467881.40    119629.40 
   12523.000   468045.40    119510.40 
   12528.000   468840.40    119605.40 
   12533.000   468881.40    119485.40 
   12538.000   470017.40    119654.40 
   12543.000   471308.40    119871.40 
   12548.000   471453.40    119789.40 
   12553.000   471461.40    119687.40 
   12558.000   471555.40    119657.40 
   12563.000   472332.40    119714.40 
   12568.000   472224.40    119594.40 
   12573.000   472569.40    119595.40 
   12578.000   473520.40    119703.40 
   12583.000   474505.40    119824.40 
   12588.000   473016.40    119374.40 
   12593.000   474200.40    119558.40 
   12598.000   474772.40    119604.40 
   12603.000   475666.40    119708.40 
   12608.000   476087.40    119742.40 
   12613.000   475345.40    119466.40 
   12618.000   476170.40    119574.40 
   12623.000   477346.40    119785.40 
   12628.000   476767.40    119543.40 
   12633.000   476213.40    119381.40 
   12638.000   476900.40    119553.40 
   12643.000   477365.40    119775.40 
   12648.000   474982.40    119613.40 
   12648.250   475938.40    119901.40 
   12648.500   475419.40    119849.40 
   12648.750   475183.40    119798.40 
   12649.000   474750.40    119797.40 
   12649.250   474692.40    119819.40 
   12649.500   474974.40    119982.40 
   12649.750   475083.40    120053.40 
   12650.000   474268.40    119956.40 
   12650.250   472989.40    119735.40 
   12650.500   472467.40    119712.40 
   12650.750   472092.40    119753.40 
   12651.000   472102.40    119868.40 
   12651.250   471651.40    119975.40 
   12651.500   470230.40    119819.40 
   12651.750   469555.40    119853.40 
   12652.000   468233.40    119788.40 
   12652.250   466878.40    119733.40 
   12652.500   464705.40    119642.40 
   12652.750   463386.40    119696.40 
   12653.000   460871.40    119672.40 
   12653.250   457553.40    119649.40 
   12653.500   454925.40    119707.40 
   12653.750   449631.40    119504.40 
   12654.000   445507.40    119563.40 
   12654.250   439326.40    119647.40 
   12654.500   432779.40    119870.40 
   12654.750   426830.40    119925.40 
   12655.000   417954.40    119854.40 
   12655.250   411359.40    119752.40 
   12655.500   404600.40    119805.40 
   12655.750   400358.40    119730.40 
   12656.000   397227.40    119694.40 
   12656.250   397257.40    119671.40 
   12656.500   399046.40    119657.40 
   12656.750   403493.40    119684.40 
   12657.000   406555.40    119570.40 
   12657.250   411817.40    119551.40 
   12657.500   415658.40    119529.40 
   12657.750   419983.40    119517.40 
   12658.000   423248.40    119501.40 
   12658.250   425436.40    119555.40 
   12658.500   427348.40    119655.40 
   12658.750   427854.40    119648.40 
   12659.000   427471.40    119565.40 
   12659.250   426523.40    119497.40 
   12659.500   425092.40    119394.40 
   12659.750   423585.40    119462.40 
   12660.000   421794.40    119399.40 
   12660.250   419848.40    119445.40 
   12660.500   418383.40    119481.40 
   12660.750   416474.40    119531.40 
   12661.000   414245.40    119492.40 
   12661.250   412711.40    119445.40 
   12661.500   411128.40    119463.40 
   12661.750   409707.40    119470.40 
   12662.000   408259.40    119510.40 
   12662.250   406941.40    119485.40 
   12662.500   405184.40    119419.40 
   12662.750   403179.40    119336.40 
   12663.000   401810.40    119277.40 
   12663.250   400712.40    119344.40 
   12663.500   399754.40    119335.40 
   12663.750   398609.40    119307.40 
   12664.000   397912.40    119365.40 
   12664.250   396819.40    119188.40 
   12664.500   396403.40    119196.40 
   12664.750   396013.40    119200.40 
   12665.000   395873.40    119223.40 
   12665.250   396135.40    119324.40 
   12665.500   396032.40    119321.40 
   12665.750   395645.40    119147.40 
   12666.000   397181.40    119570.40 
   12666.250   398331.40    119819.40 
   12666.500   398965.40    119877.40 
   12666.750   399457.40    119880.40 
   12667.000   399574.40    119736.40 
   12667.250   400174.40    119706.40 
   12667.500   400797.40    119675.40 
   12667.750   401670.40    119711.40 
   12668.000   402655.40    119755.40 
   12668.250   403167.40    119723.40 
   12668.500   404438.40    119817.40 
   12668.750   405001.40    119783.40 
   12669.000   405946.40    119798.40 
   12669.250   407179.40    119874.40 
   12669.500   407508.40    119771.40 
   12669.750   408296.40    119762.40 
   12670.000   408617.40    119634.40 
   12670.250   409666.40    119672.40 
   12670.500   410218.40    119669.40 
   12670.750   411209.40    119704.40 
   12671.000   411878.40    119695.40 
   12671.250   412256.40    119623.40 
   12671.500   412940.40    119598.40 
   12671.750   413701.40    119644.40 
   12672.000   414401.40    119724.40 
   12672.250   414662.40    119618.40 
   12672.500   415074.40    119587.40 
   12672.750   415608.40    119602.40 
   12673.000   415991.40    119596.40 
   12673.250   416327.40    119550.40 
   12673.500   416764.40    119615.40 
   12673.750   417230.40    119632.40 
   12674.000   417564.40    119602.40 
   12674.250   417948.40    119594.40 
   12674.500   418268.40    119596.40 
   12674.750   418430.40    119565.40 
   12675.000   418408.40    119484.40 
   12675.250   418706.40    119486.40 
   12675.500   418873.40    119441.40 
   12675.750   418976.40    119433.40 
   12676.000   419309.40    119432.40 
   12676.250   419364.40    119400.40 
   12676.500   419646.40    119456.40 
   12676.750   419773.40    119460.40 
   12677.000   419947.40    119475.40 
   12677.250   420013.40    119456.40 
   12677.500   420136.40    119476.40 
   12677.750   420285.40    119487.40 
   12678.000   420783.40    119575.40 
   12678.250   420742.40    119568.40 
   12678.500   420428.40    119433.40 
   12678.750   419827.40    119229.40 
   12679.000   420109.40    119307.40 
   12679.250   420817.40    119486.40 
   12679.500   422706.40    120010.40 
   12679.750   422864.40    119997.40 
   12680.000   422633.40    119953.40 
   12680.250   422976.40    120031.40 
   12680.500   422895.40    120002.40 
   12680.750   422559.40    119912.40 
   12681.000   422282.40    119813.40 
   12681.250   422397.40    119853.40 
   12681.500   422409.40    119867.40 
   12681.750   422411.40    119888.40 
   12682.000   422254.40    119839.40 
   12682.250   422020.40    119813.40 
   12682.500   422239.40    119914.40 
   12682.750   421897.40    119851.40 
   12683.000   421888.40    119891.40 
   12683.250   421648.40    119842.40 
   12683.500   420964.40    119684.40 
   12683.750   420768.40    119724.40 
   12684.000   420862.40    119751.40 
   12684.250   420610.40    119722.40 
   12684.500   420420.40    119740.40 
   12684.750   420300.40    119738.40 
   12685.000   420622.40    119848.40 
   12685.250   420422.40    119861.40 
   12685.500   420125.40    119822.40 
   12685.750   419733.40    119749.40 
   12686.000   419570.40    119747.40 
   12686.250   419236.40    119694.40 
   12686.500   419188.40    119685.40 
   12686.750   419212.40    119750.40 
   12687.000   418937.40    119704.40 
   12687.250   419014.40    119770.40 
   12687.500   418303.40    119632.40 
   12687.750   418127.40    119607.40 
   12688.000   418450.40    119720.40 
   12688.860   417592.40    119588.40 
   12689.730   417115.40    119528.40 
   12690.620   416546.40    119432.40 
   12691.520   416926.40    119524.40 
   12692.430   416972.40    119498.40 
   12693.350   416961.40    119486.40 
   12694.280   417373.40    119520.40 
   12695.230   417681.40    119513.40 
   12696.190   417700.40    119397.40 
   12697.160   417336.40    119223.40 
   12698.140   419281.40    119692.40 
   12699.130   419528.40    119642.40 
   12700.140   419232.40    119442.40 
   12701.160   419345.40    119364.40 
   12702.190   419971.40    119470.40 
   12703.240   420674.40    119511.40 
   12704.290   420739.40    119371.40 
   12705.360   420876.40    119273.40 
   12706.440   423209.40    119817.40 
   12707.530   424227.40    119963.40 
   12708.640   424450.40    119948.40 
   12709.750   424697.40    119920.40 
   12710.880   424531.40    119865.40 
   12712.020   423958.40    119731.40 
   12713.180   424023.40    119799.40 
   12714.340   424139.40    119903.40 
   12715.520   423919.40    119887.40 
   12716.710   424025.40    119952.40 
   12717.910   424056.40    119946.40 
   12719.130   423800.40    119873.40 
   12720.350   423391.40    119752.40 
   12721.590   423700.40    119813.40 
   12722.840   423458.40    119700.40 
   12724.100   423535.40    119741.40 
   12725.380   423297.40    119707.40 
   12726.670   423651.40    119826.40 
   12727.960   423299.40    119759.40 
   12729.280   422696.40    119639.40 
   12730.600   422480.40    119601.40 
   12731.940   422574.40    119656.40 
   12733.280   422532.40    119636.40 
   12734.640   422720.40    119711.40 
   12736.020   422415.40    119662.40 
   12737.400   422426.40    119646.40 
   12738.800   421567.40    119408.40 
   12740.210   421113.40    119211.40 
   12741.630   424119.40    120069.40 
   12743.060   423520.40    119836.40 
   12744.510   422966.40    119628.40 
   12745.960   423405.40    119650.40 
   12747.430   423734.40    119600.40 
   12748.920   424249.40    119581.40 
   12750.410   424552.40    119556.40 
   12751.920   424727.40    119513.40 
   12753.440   424848.40    119429.40 
   12754.970   425365.40    119470.40 
   12756.510   425951.40    119531.40 
   12758.060   426333.40    119518.40 
   12759.630   426861.40    119609.40 
   12761.210   427269.40    119583.40 
   12762.800   427223.40    119474.40 
   12764.410   427541.40    119439.40 
   12766.020   427688.40    119454.40 
   12767.650   427933.40    119463.40 
   12769.290   427927.40    119425.40 
   12770.940   427294.40    119266.40 
   12772.610   425284.40    118686.40 
   12774.290   428953.40    119752.40 
   12775.970   428560.40    119640.40 
   12777.680   428024.40    119498.40 
   12779.390   427827.40    119499.40 
   12781.110   428909.40    119862.40 
   12782.850   429127.40    119930.40 
   12784.600   428953.40    119890.40 
   12786.360   429153.40    119992.40 
   12788.140   429061.40    119970.40 
   12789.920   428769.40    119939.40 
   12791.720   428847.40    119970.40 
   12793.540   428524.40    119903.40 
   12795.360   428545.40    119929.40 
   12797.190   428347.40    119890.40 
   12799.040   428461.40    119905.40 
   12800.900   428300.40    119766.40 
   12802.770   426603.40    119246.40 
   12804.660   431102.40    120447.40 
   12806.550   430219.40    120122.40 
   12808.460   430096.40    120028.40 
   12810.380   429833.40    119885.40 
   12812.310   429956.40    119833.40 
   12814.260   430087.40    119788.40 
   12816.210   430718.40    119837.40 
   12818.180   430883.40    119723.40 
   12820.170   431189.40    119660.40 
   12822.160   431376.40    119562.40 
   12824.170   432598.40    119729.40 
   12826.180   433569.40    119830.40 
   12828.210   433957.40    119836.40 
   12830.250   434095.40    119789.40 
   12832.310   434081.40    119726.40 
   12834.380   434247.40    119731.40 
   12836.460   434607.40    119786.40 
   12838.550   433537.40    119460.40 
   12840.650   433828.40    119529.40 
   12842.760   435332.40    119915.40 
   12844.890   435031.40    119809.40 
   12847.030   434841.40    119784.40 
   12849.180   434541.40    119653.40 
   12851.350   434664.40    119666.40 
   12853.520   434581.40    119613.40 
   12855.710   431779.40    118823.40 
   12857.910   436601.40    120134.40 
   12860.130   435493.40    119848.40 
   12862.350   434815.40    119656.40 
   12864.590   434422.40    119578.40 
   12866.840   433483.40    119303.40 
   12869.100   432424.40    119040.40 
   12871.370   434842.40    119701.40 
   12873.660   434373.40    119557.40 
   12875.960   434071.40    119439.40 
   12878.270   434690.40    119567.40 
   12880.590   434843.40    119547.40 
   12882.920   435012.40    119544.40 
   12885.270   435126.40    119529.40 
   12887.630   435562.40    119558.40 
   12890.000   436051.40    119579.40 
   12892.380   438098.40    120041.40 
   12894.780   438559.40    120017.40 
   12897.190   439029.40    120027.40 
   12899.610   439466.40    120033.40 
   12902.040   439987.40    120046.40 
   12904.480   440227.40    120020.40 
   12906.940   440620.40    120044.40 
   12909.410   441002.40    120052.40 
   12911.890   440710.40    119915.40 
   12914.380   441324.40    119957.40 
   12916.880   441557.40    120007.40 
   12919.400   441699.40    120014.40 
   12921.930   441822.40    119991.40 
   12924.470   441753.40    119905.40 
   12927.030   441666.40    119884.40 
   12929.590   441871.40    119907.40 
   12932.170   442313.40    119982.40 
   12934.760   442113.40    119877.40 
   12937.360   442758.40    119989.40 
   12939.980   442708.40    119917.40 
   12942.610   442091.40    119695.40 
   12945.240   442688.40    119814.40 
   12947.900   442759.40    119790.40 
   12950.560   443039.40    119801.40 
   12953.230   443579.40    119863.40 
   12955.920   443783.40    119884.40 
   12958.620   443869.40    119849.40 
   12961.330   444151.40    119861.40 
   12964.060   443916.40    119786.40 
   12966.790   444004.40    119735.40 
   12969.540   444274.40    119774.40 
   12972.300   444172.40    119713.40 
   12975.080   444432.40    119724.40 
   12977.860   444507.40    119743.40 
   12980.660   444506.40    119681.40 
   12983.470   444570.40    119632.40 
   12986.290   445079.40    119677.40 
   12989.130   445418.40    119690.40 
   12991.970   445206.40    119529.40 
   12994.830   446707.40    119844.40 
   12997.700   446281.40    119642.40 
   13000.580   446166.40    119536.40 
   13003.480   446802.40    119622.40 
   13006.380   447263.40    119660.40 
   13009.300   447518.40    119660.40 
   13012.230   447813.40    119611.40 
   13015.180   447814.40    119535.40 
   13018.130   447533.40    119400.40 
   13021.100   449456.40    119849.40 
   13024.080   449532.40    119774.40 
   13027.070   449247.40    119624.40 
   13030.080   449505.40    119591.40 
   13033.090   449349.40    119508.40 
   13036.120   451727.40    120063.40 
   13039.160   452074.40    120093.40 
   13042.220   452790.40    120211.40 
   13045.280   452619.40    120087.40 
   13048.360   452787.40    120089.40 
   13051.450   452866.40    120076.40 
   13054.550   453199.40    120098.40 
   13057.670   453342.40    120079.40 
   13060.790   453216.40    119996.40 
   13063.930   453478.40    119991.40 
   13067.080   453594.40    119991.40 
   13070.240   454114.40    120068.40 
   13073.420   454246.40    120052.40 
   13076.600   454197.40    119970.40 
   13079.800   454580.40    119995.40 
   13083.010   454743.40    119994.40 
   13086.240   454843.40    119901.40 
   13089.470   455152.40    119933.40 
   13092.720   455863.40    120038.40 
   13095.980   456157.40    120006.40 
   13099.250   456240.40    119937.40 
   13102.540   455981.40    119778.40 
   13105.840   456635.40    119863.40 
   13109.140   457381.40    120019.40 
   13112.470   457258.40    119894.40 
   13115.800   457272.40    119801.40 
   13119.140   457533.40    119769.40 
   13122.500   457763.40    119775.40 
   13125.870   458265.40    119804.40 
   13129.250   458083.40    119703.40 
   13132.650   459128.40    119889.40 
   13136.050   459605.40    119942.40 
   13139.470   459286.40    119789.40 
   13142.900   459478.40    119770.40 
   13146.350   459675.40    119758.40 
   13149.800   460123.40    119773.40 
   13153.270   460491.40    119761.40 
   13156.750   460861.40    119822.40 
   13160.240   461215.40    119849.40 
   13163.740   461747.40    119864.40 
   13167.260   461481.40    119743.40 
   13170.790   461338.40    119610.40 
   13174.330   462097.40    119753.40 
   13177.880   462558.40    119774.40 
   13181.440   462500.40    119673.40 
   13185.020   462206.40    119569.40 
   13188.610   463057.40    119707.40 
   13192.210   463350.40    119693.40 
   13195.820   463160.40    119591.40 
   13199.450   463452.40    119561.40 
   13203.090   463790.40    119593.40 
   13206.740   464231.40    119637.40 
   13210.400   464288.40    119550.40 
   13214.070   464111.40    119430.40 
   13217.760   462624.40    118974.40 
   13221.460   466714.40    119958.40 
   13225.170   465773.40    119617.40 
   13228.890   465512.40    119487.40 
   13232.630   465618.40    119405.40 
   13236.370   466177.40    119521.40 
   13240.130   466295.40    119408.40 
   13243.910   466310.40    119370.40 
   13247.690   466771.40    119380.40 
   13251.490   466860.40    119340.40 
   13255.290   466636.40    119188.40 
   13259.110   466965.40    119177.40 
   13262.950   466937.40    119129.40 
   13266.790   465803.40    118755.40 
   13270.650   461261.40    117504.40 
   13274.520   459577.40    116980.40 
   13278.400   466410.40    118660.40 
   13282.290   467680.40    118910.40 
   13286.200   467028.40    118662.40 
   13290.110   469468.40    119191.40 
   13294.040   470306.40    119319.40 
   13297.990   469578.40    119047.40 
   13301.940   470024.40    119084.40 
   13305.910   471795.40    119472.40 
   13309.890   472397.40    119524.40 
   13313.880   472232.40    119411.40 
   13317.880   472193.40    119298.40 
   13321.900   471853.40    119137.40 
   13325.920   472095.40    119111.40 
   13329.960   472863.40    119240.40 
   13334.010   473701.40    119324.40 
   13338.080   474240.40    119394.40 
   13342.150   474300.40    119333.40 
   13346.240   475175.40    119469.40 
   13350.340   475697.40    119511.40 
   13354.460   475424.40    119399.40 
   13358.580   475235.40    119272.40 
   13362.720   475012.40    119067.40 
   13366.870   475235.40    119064.40 
   13371.030   475721.40    119087.40 
   13375.200   476229.40    119110.40 
   13379.390   476775.40    119203.40 
   13383.580   477115.40    119211.40 
   13387.790   477676.40    119243.40 
   13392.020   477668.40    119132.40 
   13396.250   477711.40    119083.40 
   13400.500   478381.40    119153.40 
   13404.760   478825.40    119204.40 
