#XDI/1.1  GSE/1.0
# Column.1: energy eV
# Column.2: itrans
# Column.3: i0
# Scan.end_time: 2008-04-10 18:23:06
# Scan.start_time: 2008-04-10 18:05:24
# Element.symbol:  Se
# Element.edge:  K
# Facility.Name:  APS
# Beamline.Name:  13-BM-D
# Beamline.xray_source:  bending magnet
# Mono.d_spacing:  3.13555
# Mono.name: Si 111
# Beamline.Storage_Ring_Current: 102.216 || S:SRcurrentAI.VAL
# Beamline.FOE_Mono_angle_readback: 9.0947 || 13BMA:m17.RBV
# Beamline.Mono_Energy_drive_val: 12508.0000 || 13BMA:E:Energy.VAL
# Beamline.Mono_Energy_readback: 12503.0242 || 13BMA:E:E_RBV
# Beamline.Mono_Beam_Offset: 20.0000 || 13BMA:E:height.VAL
# Beamline.I0_sensitivity_value: 5 || 13BMD:A3sens_num.VAL
# Beamline.I0_sensitivity_value: nA/V || 13BMD:A3sens_unit.VAL
# Beamline.I1_sensitivity_value: 20 || 13BMD:A2sens_num.VAL
# Beamline.I1_sensitivity_value: nA/V || 13BMD:A2sens_unit.VAL
# Beamline.FOE_Mono_Yout: 10.4439 || 13BMA:m10.VAL
# Beamline.FOE_Mono_Yin: 10.6474 || 13BMA:m11.VAL
# Beamline.FOE_Mono_Yup: 9.7047 || 13BMA:m12.VAL
# Beamline.FOE_Mono_Cage_Y: 0.000 || 13BMA:m13.VAL
# Beamline.FOE_Mono_Z: 64.134 || 13BMA:m14.VAL
# Beamline.FOE_Mono_angle: 9.0947 || 13BMA:m17.VAL
# Beamline.BMD_Horiz_Width: 5.000 || 13BMD:BMDHt2.C
# Beamline.BMD_Horiz_Center: -2.000 || 13BMD:BMDHt2.D
# Beamline.BMD_Vertical_Width: 0.500 || 13BMD:BMDVt2.C
# Beamline.BMD_Vertical_Center: -19.950 || 13BMD:BMDVt2.D
# Beamline.Sample_X: 326.174 || 13BMD:m70.VAL
# Beamline.Sample_Z__focus: 25.652 || 13BMD:m33.VAL
# Beamline.Sample_Y__height: 34.616 || 13BMD:m34.VAL
# ScanParameters.Start: Scan.Member: Value
# ScanParameters.E0: 12658.0
# ScanParameters.Legend: Start       Stop       Step       Npts       Time   Kspace?
# ScanParameters.Region1: -150.00    -10.000     5.0000     29.000     2.0000   0
# ScanParameters.Region2: -10.000     30.000    0.25000     161.00     2.0000   0
# ScanParameters.Region3: 2.8061     14.000   0.039978     281.00     2.0000   1
# ScanParameters.End: here
#-------------------------
#  energy  itrans  i0
   12508.000   469969.40    120328.40 
   12513.000   467896.40    119671.40 
   12518.000   467459.40    119460.40 
   12523.000   466374.40    119113.40 
   12528.000   468504.40    119486.40 
   12533.000   470649.40    119932.40 
   12538.000   470512.40    119796.40 
   12543.000   469429.40    119389.40 
   12548.000   469143.40    119218.40 
   12553.000   470184.40    119364.40 
   12558.000   470683.40    119414.40 
   12563.000   471460.40    119499.40 
   12568.000   472427.40    119622.40 
   12573.000   472937.40    119618.40 
   12578.000   472711.40    119458.40 
   12583.000   472435.40    119288.40 
   12588.000   471989.40    119093.40 
   12593.000   474641.40    119636.40 
   12598.000   474200.40    119431.40 
   12603.000   473343.40    119152.40 
   12608.000   474659.40    119367.40 
   12613.000   475459.40    119471.40 
   12618.000   475290.40    119344.40 
   12623.000   474902.40    119157.40 
   12628.000   475420.40    119225.40 
   12633.000   476518.40    119468.40 
   12638.000   476565.40    119456.40 
   12643.000   475364.40    119259.40 
   12648.000   473357.40    119190.40 
   12648.250   473827.40    119365.40 
   12648.500   473853.40    119439.40 
   12648.750   474131.40    119549.40 
   12649.000   474684.40    119735.40 
   12649.250   474556.40    119767.40 
   12649.500   474278.40    119778.40 
   12649.750   473671.40    119704.40 
   12650.000   473473.40    119768.40 
   12650.250   472583.40    119635.40 
   12650.500   472004.40    119581.40 
   12650.750   471533.40    119583.40 
   12651.000   473698.40    120259.40 
   12651.250   472610.40    120165.40 
   12651.500   471761.40    120183.40 
   12651.750   470846.40    120157.40 
   12652.000   469574.40    120143.40 
   12652.250   468347.40    120133.40 
   12652.500   466560.40    120113.40 
   12652.750   464859.40    120056.40 
   12653.000   462301.40    120048.40 
   12653.250   458940.40    120028.40 
   12653.500   455775.40    119919.40 
   12653.750   451062.40    119892.40 
   12654.000   446622.40    119884.40 
   12654.250   440672.40    120007.40 
   12654.500   433851.40    120203.40 
   12654.750   427749.40    120207.40 
   12655.000   419352.40    120284.40 
   12655.250   413081.40    120246.40 
   12655.500   405796.40    120161.40 
   12655.750   401330.40    120039.40 
   12656.000   397944.40    119908.40 
   12656.250   398145.40    119896.40 
   12656.500   400285.40    119965.40 
   12656.750   404850.40    120058.40 
   12657.000   407933.40    119939.40 
   12657.250   413425.40    119973.40 
   12657.500   417229.40    119916.40 
   12657.750   421559.40    119919.40 
   12658.000   424969.40    119930.40 
   12658.250   426699.40    119874.40 
   12658.500   428102.40    119835.40 
   12658.750   428576.40    119841.40 
   12659.000   428539.40    119845.40 
   12659.250   428004.40    119938.40 
   12659.500   426781.40    119856.40 
   12659.750   424790.40    119797.40 
   12660.000   423262.40    119778.40 
   12660.250   421033.40    119751.40 
   12660.500   419742.40    119849.40 
   12660.750   417366.40    119790.40 
   12661.000   415387.40    119791.40 
   12661.250   413903.40    119757.40 
   12661.500   412262.40    119782.40 
   12661.750   410878.40    119762.40 
   12662.000   409193.40    119743.40 
   12662.250   408088.40    119813.40 
   12662.500   406325.40    119785.40 
   12662.750   404627.40    119775.40 
   12663.000   403595.40    119773.40 
   12663.250   401912.40    119694.40 
   12663.500   400992.40    119705.40 
   12663.750   400172.40    119766.40 
   12664.000   399197.40    119742.40 
   12664.250   400133.40    120195.40 
   12664.500   400119.40    120343.40 
   12664.750   399598.40    120296.40 
   12665.000   399322.40    120278.40 
   12665.250   399501.40    120366.40 
   12665.500   399043.40    120205.40 
   12665.750   398968.40    120190.40 
   12666.000   399283.40    120206.40 
   12666.250   399625.40    120198.40 
   12666.500   400159.40    120246.40 
   12666.750   400516.40    120180.40 
   12667.000   400860.40    120163.40 
   12667.250   401329.40    120052.40 
   12667.500   402257.40    120092.40 
   12667.750   403085.40    120168.40 
   12668.000   404259.40    120204.40 
   12668.250   404947.40    120205.40 
   12668.500   405805.40    120197.40 
   12668.750   406159.40    120100.40 
   12669.000   406908.40    120058.40 
   12669.250   408028.40    120112.40 
   12669.500   408685.40    120104.40 
   12669.750   409425.40    120074.40 
   12670.000   410168.40    120078.40 
   12670.250   411082.40    120079.40 
   12670.500   411585.40    120037.40 
   12670.750   412202.40    119968.40 
   12671.000   413096.40    120003.40 
   12671.250   413810.40    120041.40 
   12671.500   414385.40    120008.40 
   12671.750   414741.40    119964.40 
   12672.000   415427.40    119958.40 
   12672.250   416018.40    120002.40 
   12672.500   416363.40    119934.40 
   12672.750   416487.40    119836.40 
   12673.000   416697.40    119805.40 
   12673.250   417678.40    119935.40 
   12673.500   418038.40    119966.40 
   12673.750   418241.40    119867.40 
   12674.000   418152.40    119762.40 
   12674.250   418861.40    119848.40 
   12674.500   419257.40    119882.40 
   12674.750   419584.40    119896.40 
   12675.000   419654.40    119799.40 
   12675.250   419710.40    119770.40 
   12675.500   420092.40    119784.40 
   12675.750   420357.40    119806.40 
   12676.000   420148.40    119688.40 
   12676.250   420884.40    119809.40 
   12676.500   420980.40    119802.40 
   12676.750   421131.40    119840.40 
   12677.000   421328.40    119861.40 
   12677.250   421549.40    119870.40 
   12677.500   421617.40    119855.40 
   12677.750   421772.40    119878.40 
   12678.000   421562.40    119797.40 
   12678.250   421572.40    119777.40 
   12678.500   421724.40    119795.40 
   12678.750   421374.40    119685.40 
   12679.000   421452.40    119675.40 
   12679.250   421548.40    119688.40 
   12679.500   422100.40    119819.40 
   12679.750   422002.40    119758.40 
   12680.000   421761.40    119661.40 
   12680.250   421759.40    119663.40 
   12680.500   421796.40    119673.40 
   12680.750   421250.40    119542.40 
   12681.000   421438.40    119593.40 
   12681.250   421592.40    119638.40 
   12681.500   421567.40    119623.40 
   12681.750   421658.40    119658.40 
   12682.000   421038.40    119519.40 
   12682.250   421212.40    119619.40 
   12682.500   420893.40    119550.40 
   12682.750   420849.40    119557.40 
   12683.000   420811.40    119569.40 
   12683.250   420515.40    119534.40 
   12683.500   420462.40    119537.40 
   12683.750   420064.40    119485.40 
   12684.000   420091.40    119536.40 
   12684.250   420091.40    119572.40 
   12684.500   419795.40    119515.40 
   12684.750   419465.40    119473.40 
   12685.000   419218.40    119442.40 
   12685.250   419206.40    119468.40 
   12685.500   419180.40    119506.40 
   12685.750   418832.40    119445.40 
   12686.000   418340.40    119387.40 
   12686.250   418309.40    119399.40 
   12686.500   418322.40    119431.40 
   12686.750   418261.40    119465.40 
   12687.000   418025.40    119427.40 
   12687.250   418049.40    119444.40 
   12687.500   418175.40    119545.40 
   12687.750   417535.40    119391.40 
   12688.000   417376.40    119358.40 
   12688.860   416893.40    119347.40 
   12689.730   416598.40    119338.40 
   12690.620   416696.40    119397.40 
   12691.520   416095.40    119268.40 
   12692.430   415941.40    119181.40 
   12693.350   416232.40    119231.40 
   12694.280   416313.40    119162.40 
   12695.230   416358.40    119096.40 
   12696.190   416441.40    119031.40 
   12697.160   416803.40    119045.40 
   12698.140   418299.40    119356.40 
   12699.130   420753.40    119960.40 
   12700.140   420970.40    119895.40 
   12701.160   421515.40    119935.40 
   12702.190   421694.40    119915.40 
   12703.240   421845.40    119822.40 
   12704.290   422001.40    119700.40 
   12705.360   422522.40    119707.40 
   12706.440   422908.40    119690.40 
   12707.530   423365.40    119674.40 
   12708.640   424073.40    119772.40 
   12709.750   424340.40    119786.40 
   12710.880   424133.40    119728.40 
   12712.020   423610.40    119582.40 
   12713.180   423692.40    119666.40 
   12714.340   423207.40    119602.40 
   12715.520   422818.40    119520.40 
   12716.710   423011.40    119606.40 
   12717.910   423362.40    119699.40 
   12719.130   423098.40    119607.40 
   12720.350   422817.40    119500.40 
   12721.590   423253.40    119597.40 
   12722.840   423114.40    119589.40 
   12724.100   423065.40    119599.40 
   12725.380   422699.40    119515.40 
   12726.670   422421.40    119488.40 
   12727.960   422114.40    119439.40 
   12729.280   422030.40    119464.40 
   12730.600   422067.40    119468.40 
   12731.940   421902.40    119467.40 
   12733.280   421948.40    119544.40 
   12734.640   421745.40    119479.40 
   12736.020   421314.40    119333.40 
   12737.400   421123.40    119255.40 
   12738.800   420383.40    119042.40 
   12740.210   419980.40    118907.40 
   12741.630   423283.40    119805.40 
   12743.060   422702.40    119588.40 
   12744.510   422832.40    119521.40 
   12745.960   422785.40    119440.40 
   12747.430   422832.40    119359.40 
   12748.920   422915.40    119236.40 
   12750.410   423793.40    119344.40 
   12751.920   424395.40    119397.40 
   12753.440   424700.40    119356.40 
   12754.970   425170.40    119380.40 
   12756.510   425440.40    119361.40 
   12758.060   425617.40    119345.40 
   12759.630   425580.40    119233.40 
   12761.210   426115.40    119248.40 
   12762.800   426378.40    119213.40 
   12764.410   426964.40    119260.40 
   12766.020   427094.40    119225.40 
   12767.650   427096.40    119200.40 
   12769.290   429205.40    119743.40 
   12770.940   428918.40    119672.40 
   12772.610   427187.40    119179.40 
   12774.290   430642.40    120193.40 
   12775.970   430070.40    120049.40 
   12777.680   429345.40    119851.40 
   12779.390   428903.40    119750.40 
   12781.110   428582.40    119695.40 
   12782.850   428748.40    119779.40 
   12784.600   428608.40    119756.40 
   12786.360   428108.40    119673.40 
   12788.140   427894.40    119620.40 
   12789.920   428079.40    119687.40 
   12791.720   428064.40    119726.40 
   12793.540   427979.40    119736.40 
   12795.360   427832.40    119699.40 
   12797.190   427626.40    119632.40 
   12799.040   427393.40    119564.40 
   12800.900   427109.40    119441.40 
   12802.770   425641.40    118947.40 
   12804.660   430680.40    120285.40 
   12806.550   429972.40    120046.40 
   12808.460   429538.40    119824.40 
   12810.380   429080.40    119622.40 
   12812.310   429249.40    119602.40 
   12814.260   429774.40    119641.40 
   12816.210   429975.40    119567.40 
   12818.180   430224.40    119495.40 
   12820.170   430835.40    119530.40 
   12822.160   431443.40    119536.40 
   12824.170   431997.40    119556.40 
   12826.180   432356.40    119468.40 
   12828.210   432997.40    119527.40 
   12830.250   433129.40    119477.40 
   12832.310   433233.40    119459.40 
   12834.380   433612.40    119486.40 
   12836.460   433558.40    119475.40 
   12838.550   432242.40    119100.40 
   12840.650   433067.40    119299.40 
   12842.760   434134.40    119554.40 
   12844.890   433394.40    119343.40 
   12847.030   433275.40    119301.40 
   12849.180   433224.40    119293.40 
   12851.350   433592.40    119332.40 
   12853.520   433589.40    119344.40 
   12855.710   431311.40    118685.40 
   12857.910   436154.40    120045.40 
   12860.130   434882.40    119660.40 
   12862.350   434207.40    119494.40 
   12864.590   433849.40    119375.40 
   12866.840   432973.40    119119.40 
   12869.100   431631.40    118803.40 
   12871.370   434720.40    119647.40 
   12873.660   435072.40    119724.40 
   12875.960   436033.40    119996.40 
   12878.270   436277.40    119986.40 
   12880.590   435972.40    119862.40 
   12882.920   436281.40    119897.40 
   12885.270   436634.40    119919.40 
   12887.630   436891.40    119914.40 
   12890.000   436497.40    119719.40 
   12892.380   437049.40    119720.40 
   12894.780   437953.40    119851.40 
   12897.190   438340.40    119876.40 
   12899.610   438639.40    119811.40 
   12902.040   438684.40    119686.40 
   12904.480   438910.40    119672.40 
   12906.940   439297.40    119675.40 
   12909.410   439626.40    119680.40 
   12911.890   440267.40    119775.40 
   12914.380   440148.40    119686.40 
   12916.880   440569.40    119711.40 
   12919.400   440553.40    119672.40 
   12921.930   440421.40    119637.40 
   12924.470   441144.40    119780.40 
   12927.030   440756.40    119634.40 
   12929.590   440513.40    119528.40 
   12932.170   441108.40    119628.40 
   12934.760   441110.40    119591.40 
   12937.360   441862.40    119764.40 
   12939.980   441467.40    119592.40 
   12942.610   440810.40    119373.40 
   12945.240   441637.40    119549.40 
   12947.900   441980.40    119572.40 
   12950.560   442321.40    119610.40 
   12953.230   442081.40    119510.40 
   12955.920   442365.40    119515.40 
   12958.620   442452.40    119458.40 
   12961.330   442573.40    119449.40 
   12964.060   443302.40    119597.40 
   12966.790   443330.40    119585.40 
   12969.540   443622.40    119602.40 
   12972.300   443162.40    119451.40 
   12975.080   443348.40    119474.40 
   12977.860   443919.40    119564.40 
   12980.660   444063.40    119510.40 
   12983.470   443691.40    119392.40 
   12986.290   444026.40    119384.40 
   12989.130   444274.40    119382.40 
   12991.970   443936.40    119198.40 
   12994.830   445631.40    119566.40 
   12997.700   445696.40    119469.40 
   13000.580   445887.40    119468.40 
   13003.480   445344.40    119239.40 
   13006.380   445454.40    119186.40 
   13009.300   446250.40    119294.40 
   13012.230   446781.40    119338.40 
   13015.180   449316.40    119906.40 
   13018.130   448393.40    119623.40 
   13021.100   450297.40    120036.40 
   13024.080   451049.40    120181.40 
   13027.070   451171.40    120091.40 
   13030.080   450594.40    119855.40 
   13033.090   450378.40    119741.40 
   13036.120   450917.40    119826.40 
   13039.160   451373.40    119883.40 
   13042.220   451614.40    119900.40 
   13045.280   451132.40    119720.40 
   13048.360   451554.40    119788.40 
   13051.450   451759.40    119760.40 
   13054.550   451855.40    119717.40 
   13057.670   451927.40    119697.40 
   13060.790   452680.40    119849.40 
   13063.930   453205.40    119941.40 
   13067.080   452935.40    119803.40 
   13070.240   452911.40    119762.40 
   13073.420   453058.40    119768.40 
   13076.600   453339.40    119760.40 
   13079.800   453249.40    119682.40 
   13083.010   453762.40    119728.40 
   13086.240   454356.40    119809.40 
   13089.470   454610.40    119781.40 
   13092.720   454767.40    119742.40 
   13095.980   454473.40    119594.40 
   13099.250   455138.40    119663.40 
   13102.540   455378.40    119638.40 
   13105.840   455772.40    119646.40 
   13109.140   456283.40    119706.40 
   13112.470   456431.40    119669.40 
   13115.800   456271.40    119516.40 
   13119.140   456486.40    119486.40 
   13122.500   456833.40    119543.40 
   13125.870   457234.40    119540.40 
   13129.250   457729.40    119603.40 
   13132.650   457450.40    119469.40 
   13136.050   457486.40    119421.40 
   13139.470   457978.40    119449.40 
   13142.900   459262.40    119690.40 
   13146.350   459062.40    119575.40 
   13149.800   459489.40    119590.40 
   13153.270   459808.40    119610.40 
   13156.750   459636.40    119470.40 
   13160.240   459879.40    119483.40 
   13163.740   460057.40    119427.40 
   13167.260   460653.40    119549.40 
   13170.790   460952.40    119523.40 
   13174.330   460699.40    119407.40 
   13177.880   460887.40    119358.40 
   13181.440   461198.40    119336.40 
   13185.020   461575.40    119413.40 
   13188.610   463966.40    119948.40 
   13192.210   464618.40    120030.40 
   13195.820   464475.40    119899.40 
   13199.450   465160.40    120011.40 
   13203.090   465207.40    119959.40 
   13206.740   465356.40    119909.40 
   13210.400   465091.40    119732.40 
   13214.070   465420.40    119768.40 
   13217.760   463249.40    119156.40 
   13221.460   467633.40    120219.40 
   13225.170   466965.40    119943.40 
   13228.890   467140.40    119905.40 
   13232.630   467303.40    119861.40 
   13236.370   467669.40    119868.40 
   13240.130   467864.40    119861.40 
   13243.910   467856.40    119760.40 
   13247.690   468198.40    119743.40 
   13251.490   467944.40    119610.40 
   13255.290   468327.40    119620.40 
   13259.110   468239.40    119496.40 
   13262.950   468223.40    119429.40 
   13266.790   467313.40    119112.40 
   13270.650   462575.40    117805.40 
   13274.520   460876.40    117284.40 
   13278.400   468016.40    119013.40 
   13282.290   469100.40    119208.40 
   13286.200   468759.40    119045.40 
   13290.110   471238.40    119582.40 
   13294.040   472360.40    119787.40 
   13297.990   471537.40    119515.40 
   13301.940   471823.40    119494.40 
   13305.910   473603.40    119859.40 
   13309.890   474209.40    119936.40 
   13313.880   473962.40    119781.40 
   13317.880   473606.40    119606.40 
   13321.900   473224.40    119452.40 
   13325.920   473328.40    119380.40 
   13329.960   474218.40    119553.40 
   13334.010   475306.40    119712.40 
   13338.080   476108.40    119827.40 
   13342.150   475898.40    119724.40 
   13346.240   475992.40    119616.40 
   13350.340   476385.40    119670.40 
   13354.460   477016.40    119730.40 
   13358.580   477238.40    119716.40 
   13362.720   476729.40    119466.40 
   13366.870   476708.40    119412.40 
   13371.030   477071.40    119368.40 
   13375.200   477609.40    119455.40 
   13379.390   478065.40    119486.40 
   13383.580   478417.40    119477.40 
   13387.790   478978.40    119520.40 
   13392.020   479368.40    119550.40 
   13396.250   480675.40    119770.40 
   13400.500   482242.40    120096.40 
   13404.760   483146.40    120220.40 
