# XDI/1.0
# Column.1: energy eV
# Column.2: i0
# Column.3: itrans
# Column.4: irefer
# Beamline.name: SSRL 2-3
# Beamline.notes: vert slits = 0.6mm
# Detector.I0: N2 15cm
# Detector.I1: N2 30cm
# Detector.I2: N2 15cm
# Element.edge: K
# Element.symbol: Cr
# Mono.d_spacing: 3.13550
# Mono.name: Si(111)
# Mono.notes: unfocused, detuned 75%, clockwise at E=5990eV
# Sample.formula: Cr2O3
# Sample.name: Cr2O3
# Sample.prep: powder on tape (4 layers)
# Sample.reference: Cr foil
# Sample.temperature: 100K
# Scan.start_time: 1997-04-18 21:40:35
# ///
#    Note: mono d_spacing is nominal!
#     exafs to K16
#     396  E XMU XMUR I0
#-------------
#   energy   i0   itrans  irefer
    5759.9890  210666.800000  10964.696893  1402.299990
    5769.9800  210748.800000  11187.699355  1439.300027
    5780.0070  210681.800000  11398.695720  1474.299466
    5790.0030  210564.800000  11618.695064  1512.299657
    5799.9650  210434.800000  11834.699672  1550.300629
    5810.0340  210368.800000  12059.698378  1590.299210
    5820.0000  210072.800000  12275.705386  1629.301080
    5830.0020  210012.800000  12509.701725  1669.300174
    5839.9710  209786.800000  12733.696875  1710.299971
    5849.9750  209804.800000  12976.701725  1754.299399
    5860.0160  209487.800000  13200.695318  1794.299157
    5870.0220  209241.800000  13435.702386  1837.300769
    5879.9930  209016.800000  13665.694365  1879.298618
    5890.0000  208795.800000  13898.705980  1923.300539
    5899.9710  208457.800000  14128.706118  1966.300036
    5909.9780  208127.800000  14356.693997  2011.300070
    5920.0210  207869.800000  14604.693099  2056.299323
    5930.0260  207473.800000  14827.700201  2100.299737
    5939.9950  207191.800000  15068.702855  2147.299346
    5949.9990  206980.800000  15302.696204  2188.300106
    5959.9650  206738.800000  15534.698902  2235.299360
    5969.9670  206293.800000  15735.705507  2274.300122
    5970.4870  206185.800000  15739.692460  2275.299527
    5971.0060  205867.800000  15731.706768  2274.302052
    5971.5260  204627.800000  15642.705705  2260.300387
    5971.9720  203327.800000  15553.698485  2251.299162
    5972.4920  202768.800000  15523.692631  2247.299816
    5973.0120  204177.800000  15648.705265  2263.300583
    5973.5320  205835.800000  15779.707255  2285.301044
    5973.9780  206354.800000  15832.693600  2292.298480
    5974.4980  206442.800000  15854.706185  2298.301511
    5975.0190  206672.800000  15877.704085  2302.300560
    5975.4640  206645.800000  15879.694483  2301.300083
    5975.9850  206522.800000  15884.706928  2301.301467
    5976.5060  206438.800000  15888.697389  2303.300284
    5977.0260  206597.800000  15916.700566  2307.299765
    5977.4730  206621.800000  15929.696458  2308.299414
    5977.9940  206568.800000  15926.693353  2310.298019
    5978.5150  206416.800000  15931.693476  2310.300091
    5979.0370  206575.800000  15950.695212  2313.298470
    5979.4830  206707.800000  15973.693323  2315.299845
    5980.0050  206717.800000  15976.702672  2319.300376
    5980.5260  206642.800000  15980.699276  2317.299963
    5980.9730  206628.800000  15987.704320  2319.301231
    5981.4950  206724.800000  15995.708062  2319.300056
    5982.0160  206757.800000  16008.695765  2321.299272
    5982.4630  206782.800000  16019.696030  2323.298555
    5982.9860  206720.800000  16017.695671  2322.300039
    5983.5070  206873.800000  16037.695908  2324.300063
    5984.0300  207001.800000  16050.700426  2328.300236
    5984.4770  206907.800000  16053.698889  2326.300607
    5984.9990  206419.800000  16016.700502  2321.299038
    5985.5210  204775.800000  15892.697423  2302.300228
    5985.9700  201274.800000  15622.702402  2261.300609
    5986.4920  191473.800000  14864.695690  2151.299299
    5987.0150  179428.800000  13925.705821  2014.301473
    5987.4630  180688.800000  14022.696766  2025.298738
    5987.9860  191111.800000  14822.697148  2136.300505
    5988.5090  197307.800000  15291.696153  2193.299313
    5989.0320  200775.800000  15536.698376  2215.300062
    5989.4800  202482.800000  15643.694754  2207.299769
    5990.0030  203599.800000  15660.698636  2159.300448
    5990.5260  204176.800000  15561.692498  2078.297991
    5990.9750  204298.800000  15359.706633  2006.300799
    5991.4990  204504.800000  15105.704397  1931.300185
    5992.0210  204651.800000  15049.699112  1887.299551
    5992.4710  204795.800000  15149.694779  1873.299632
    5992.9950  204909.800000  15152.702249  1847.299573
    5993.5180  205027.800000  14936.704599  1798.301449
    5993.9670  205058.800000  14666.702190  1749.300104
    5994.4920  205115.800000  14346.696372  1697.299906
    5995.0160  204913.800000  14092.706625  1655.300234
    5995.4650  204777.800000  14027.693584  1642.299656
    5995.9890  204625.800000  14060.703846  1644.300302
    5996.5140  204775.800000  14119.696283  1652.299117
    5996.9630  204697.800000  14098.702124  1650.299432
    5997.4880  204400.800000  14024.695953  1636.300289
    5998.0120  204521.800000  13925.693280  1611.298815
    5998.5380  204720.800000  13699.702258  1564.301032
    5998.9870  204763.800000  13359.705437  1500.300047
    5999.5130  204745.800000  12709.696546  1399.300137
    6000.0370  204489.800000  11796.703128  1271.300124
    6000.4870  203947.800000  10816.698298  1147.299682
    6001.0130  202664.800000  9488.697778   986.300092
    6001.4620  201585.800000  8432.700774   863.300104
    6001.9880  201389.800000  7392.702267   745.300589
    6002.5130  202794.800000  6645.697351   659.299501
    6002.9640  204055.800000  6295.697640   618.299993
    6003.4900  204736.800000  6086.701150   591.300017
    6004.0160  204650.800000  5848.698232   562.299930
    6004.4660  204546.800000  5529.701303   525.300290
    6004.9930  204473.800000  5036.698712   476.300105
    6005.5180  204495.800000  4504.700636   422.299896
    6005.9700  204569.800000  4115.701270   382.299953
    6006.4960  204543.800000  3724.699336   343.299901
    6007.0220  204393.800000  3288.700576   300.299949
    6007.4730  204456.800000  2887.701065   261.300212
    6008.0000  204567.800000  2470.699875   222.299982
    6008.5260  204563.800000  2223.700961   198.300030
    6008.9780  204262.800000  2153.700230   191.299962
    6009.5040  204374.800000  2184.700095   192.300036
    6010.0320  204385.800000  2252.699747   196.299914
    6010.9360  204386.560000  2267.457371   196.064048
    6011.8390  204530.840000  2081.726861   180.358051
    6012.8180  204438.640000  1917.510790   172.180985
    6013.7980  204422.950000  1991.808723   184.533941
    6014.7780  204570.800000  2335.619405   217.414877
    6015.7580  204797.160000  2678.944908   250.825958
    6016.8150  204873.030000  2900.782190   269.764863
    6017.7960  205034.420000  3034.133458   279.233723
    6018.9290  204866.340000  3244.002045   294.233022
    6019.9860  205197.780000  3441.379108   309.759929
    6021.1200  205233.730000  3556.274386   318.817154
    6022.1770  205550.200000  3523.677845   316.402003
    6023.3880  205680.200000  3349.598659   302.518010
    6024.5220  205923.720000  3202.032643   292.161896
    6025.7330  206043.750000  3141.981101   286.335100
    6026.8690  206552.300000  3154.442097   285.038121
    6028.1570  207040.370000  3323.414766   297.269780
    6029.3690  206992.970000  3596.901683   318.030761
    6030.5820  207214.080000  3909.906504   343.321299
    6031.8720  207444.700000  4215.418177   369.140776
    6033.1610  207748.860000  4473.450104   391.490099
    6034.5280  208251.530000  4693.993102   410.367011
    6035.8190  208532.720000  4874.048761   426.774273
    6037.1870  209079.420000  5064.615288   440.711056
    6038.5550  209469.660000  5212.699751   451.175855
    6040.0000  209869.410000  5289.297716   456.171009
    6041.3700  210182.670000  5325.406303   458.694903
    6042.8160  210872.450000  5323.028713   459.747639
    6044.2640  211323.770000  5267.171032   456.331122
    6045.7120  211829.590000  5222.818145   456.441896
    6047.2370  211957.940000  5223.986767   458.083342
    6048.7630  212578.800000  5245.663541   463.251926
    6050.2890  213144.190000  5215.854269   463.952030
    6051.8160  213919.090000  5109.562885   460.181114
    6053.4220  214513.520000  4928.781349   448.938113
    6054.9510  215284.450000  4767.514867   439.225284
    6056.5570  215650.920000  4650.761591   432.041336
    6058.2410  216197.910000  4553.518534   426.385777
    6059.8490  216657.410000  4423.792457   417.260042
    6061.5350  217105.420000  4285.580614   405.664037
    6063.2220  217368.970000  4166.882825   395.597196
    6064.9100  217962.030000  4075.697401   384.058987
    6066.6760  218685.610000  4034.022946   377.049850
    6068.3650  219375.700000  4029.864631   372.570046
    6070.1330  219998.330000  4021.222478   366.621226
    6071.9020  220823.470000  4026.089688   364.198804
    6073.7490  221970.120000  4085.474091   367.307017
    6075.5210  222813.300000  4174.368966   378.944016
    6077.3690  223800.000000  4276.777459   393.111024
    6079.2200  224571.220000  4355.702452   406.807123
    6081.1490  225373.950000  4428.137305   420.030909
    6083.0020  226273.200000  4537.086740   435.786044
    6084.9340  227134.980000  4687.551914   457.068717
    6086.8660  228060.280000  4835.531159   470.880930
    6088.8000  228924.090000  4965.020686   481.222982
    6090.8130  229780.420000  5103.028348   486.094202
    6092.8270  230892.280000  5254.544291   490.493762
    6094.8430  231805.660000  5397.578074   493.422906
    6096.8590  232697.550000  5483.121424   489.881645
    6098.8780  233683.950000  5494.181161   482.869698
    6100.9750  234648.890000  5481.755036   478.386791
    6103.0750  235773.340000  5491.843106   483.433225
    6105.1750  236780.310000  5535.438296   493.007816
    6107.2770  237830.810000  5619.555333   513.111832
    6109.4590  238681.810000  5715.183047   532.745916
    6111.6430  239776.340000  5821.323097   554.908842
    6113.8270  240826.390000  5907.975989   571.600648
    6116.0130  242063.970000  5965.143010   582.821701
    6118.2800  243413.050000  5990.828968   588.573065
    6120.4700  244598.660000  6015.020424   588.852674
    6122.7400  245780.780000  6076.731690   594.662061
    6125.0110  246904.440000  6159.954426   602.000128
    6127.3630  248008.590000  6234.687033   610.867857
    6129.6390  249334.280000  6303.937802   623.263738
    6131.9950  250571.480000  6366.706030   633.190616
    6134.3520  251582.220000  6386.981989   637.645275
    6136.7900  252850.450000  6370.769145   638.628869
    6139.1510  254129.220000  6357.071897   638.142847
    6141.5940  255613.500000  6355.893788   634.185068
    6144.0380  256809.310000  6358.222296   634.756908
    6146.4840  258246.620000  6385.067237   635.858020
    6148.9320  259505.470000  6439.428419   637.488387
    6151.4620  260715.830000  6535.298612   643.648210
    6153.9940  262088.720000  6669.681265   658.335942
    6156.5280  263528.120000  6767.583491   666.554135
    6159.0640  265035.030000  6775.993553   662.301761
    6161.6030  266478.470000  6736.924077   651.578403
    6164.2220  267952.440000  6724.365033   644.383329
    6166.8440  269333.910000  6761.318470   644.718115
    6169.4700  270686.910000  6842.785184   654.582166
    6172.0960  272200.440000  6996.763652   676.974757
    6174.8060  273722.470000  7226.260698   709.897071
    6177.5170  275402.030000  7433.270653   738.349461
    6180.2310  276714.090000  7537.788277   757.329240
    6182.9480  278704.690000  7604.823846   770.838622
    6185.6670  279628.810000  7640.370105   777.877708
    6188.4690  281268.440000  7733.437934   788.447478
    6191.2730  282786.590000  7834.010020   801.543940
    6194.0810  284794.280000  7974.102436   818.170192
    6196.8910  286397.470000  8165.701198   841.326557
    6199.7030  287620.190000  8410.818762   868.011622
    6202.5990  289274.410000  8699.449547   900.227071
    6205.4980  291154.160000  8944.598999   928.970669
    6208.3990  292662.440000  9095.255127   951.243563
    6211.3040  294223.220000  9184.421476   967.044014
    6214.2100  296020.530000  9256.109408   980.375919
    6217.2020  297776.370000  9311.309797   986.236366
    6220.1960  299554.720000  9317.022518   985.625421
    6223.1930  301245.590000  9269.244212   975.543864
    6226.1930  303180.970000  9238.983677   966.991946
    6229.1960  304568.870000  9231.238630   961.970240
    6232.2840  306314.310000  9283.008923   961.477353
    6235.3750  304856.250000  9311.287315   957.512363
    6238.4690  310846.720000  9615.082208   986.076766
    6241.5650  304449.720000  9512.388012   973.171406
    6244.7480  312216.220000  9834.208401  1004.794417
    6247.8520  314959.250000  10022.537082  1025.945130
    6251.0410  317256.780000  10214.389664  1055.627606
    6254.2330  318792.840000  10368.750129  1085.838487
    6257.4290  320424.440000  10492.623557  1115.578932
    6260.7100  322796.530000  10586.019195  1135.848770
    6263.9130  324624.160000  10624.918906  1147.646223
    6267.2020  326326.310000  10718.335056  1159.974279
    6270.4940  328112.970000  10886.265728  1179.830719
    6273.7900  330030.160000  11067.712040  1203.217290
    6277.1720  332232.840000  11297.664788  1230.132698
    6280.4750  333977.090000  11501.131224  1259.576304
    6283.8650  336009.810000  11694.122393  1279.551155
    6287.2580  337884.090000  11847.618864  1298.053595
    6290.6550  339696.840000  11962.629387  1311.085700
    6294.0560  341693.160000  12081.147037  1327.645591
    6297.5440  343721.970000  12217.191557  1349.737466
    6300.9540  345615.310000  12339.744777  1369.357067
    6304.4500  347341.190000  12399.815003  1379.506123
    6307.9500  349749.560000  12480.386793  1392.184861
    6311.5380  351734.440000  12602.477972  1408.391762
    6315.0470  353770.870000  12798.083635  1432.127991
    6318.5600  355678.810000  13029.201460  1453.393409
    6322.1610  357694.250000  13250.835025  1475.186719
    6325.7660  360249.220000  13509.985379  1502.513045
    6329.3750  361913.720000  13789.643520  1533.365267
    6333.0730  363737.750000  14078.828455  1563.748996
    6336.6910  365906.280000  14328.509660  1593.659964
    6340.3970  368212.310000  14554.710707  1625.102192
    6344.1090  370282.910000  14736.425222  1651.071275
    6347.8260  372097.000000  14852.654047  1671.570449
    6351.5460  375085.590000  14999.400594  1693.599660
    6355.2710  377213.720000  15117.649818  1715.157518
    6359.0850  379387.370000  15272.422752  1739.242663
    6362.8190  381177.560000  15420.708337  1767.859165
    6366.6450  382589.250000  15549.507396  1791.006871
    6370.4730  384391.440000  15694.815084  1818.680810
    6374.3070  386597.190000  15888.638567  1844.883807
    6378.2300  388707.440000  16149.982699  1875.617575
    6382.0750  391387.190000  16462.833512  1914.880705
    6386.0090  393551.500000  16717.196766  1948.671651
    6389.9480  395526.280000  16874.071829  1966.991528
    6393.8930  397856.620000  17015.465897  1990.842048
    6397.8420  400056.470000  17159.375698  2012.222258
    6401.8820  402351.840000  17359.795509  2037.129949
    6405.8430  404499.720000  17601.727388  2066.565487
    6409.8940  406188.120000  17834.172176  2100.533588
    6413.9500  408698.030000  18073.134799  2136.029155
    6418.0130  411152.500000  18297.605273  2167.053026
    6422.0810  413379.440000  18519.586692  2202.607558
    6426.1530  415564.940000  18785.097996  2233.692165
    6430.3180  417779.940000  19063.105820  2269.305493
    6434.4020  420273.470000  19328.633905  2299.446906
    6438.5790  422367.500000  19548.680453  2332.117815
    6442.7610  424269.060000  19721.232149  2351.317547
    6446.9490  426636.120000  19957.309594  2389.049222
    6451.2300  428945.750000  20272.888551  2431.308170
    6455.4300  431360.840000  20681.983431  2491.093961
    6459.7230  432922.500000  21063.585169  2545.409977
    6463.9340  435508.660000  21418.706619  2600.258027
    6468.2390  438023.340000  21760.343259  2646.632816
    6472.5500  440255.530000  22065.500123  2688.537346
    6476.9550  442880.250000  22369.164317  2735.971047
    6481.2780  444704.500000  22594.353200  2771.936065
    6485.6070  447297.250000  22886.022715  2814.426082
    6490.0310  449276.530000  23128.244538  2853.449399
    6494.4610  451665.310000  23360.964391  2889.999823
    6498.8980  454443.620000  23598.186303  2922.080485
    6503.3410  456543.470000  23834.924476  2958.687980
    6507.7900  458732.810000  24141.200068  3003.826354
    6512.3350  460910.690000  24467.979247  3055.497091
    6516.7970  462675.090000  24663.244497  3086.692281
    6521.3550  465429.000000  24871.052100  3130.418059
    6525.9200  467743.440000  25133.357314  3175.670974
    6530.4920  470020.370000  25448.200525  3226.458300
    6535.0690  472130.840000  25771.549491  3274.771680
    6539.6550  473892.840000  26094.386647  3323.612255
    6544.2470  475919.340000  26469.771561  3378.985059
    6548.9360  478119.370000  26870.645068  3432.886421
    6553.5410  480826.940000  27278.024462  3496.317995
    6558.2440  482828.000000  27633.933235  3549.275445
    6562.9540  484748.590000  28062.365859  3612.764921
    6567.6710  486970.690000  28538.296910  3684.784105
    6572.3950  489698.310000  28999.758652  3752.331978
    6577.2180  491711.470000  29363.725951  3812.408346
    6581.9560  493828.120000  29651.197765  3860.012884
    6586.7920  496169.310000  29965.185345  3908.146495
    6591.5460  497568.030000  30208.679718  3956.810577
    6596.3970  499895.250000  30477.709382  4001.004988
    6601.2570  502282.000000  30729.242171  4042.728013
    6606.1250  504121.250000  30968.291140  4084.979927
    6611.0910  506601.030000  31328.830340  4143.760756
    6615.9730  508889.340000  31760.919461  4212.071571
    6620.9550  511192.190000  32233.510984  4281.911942
    6625.8530  513062.500000  32631.584535  4345.277704
    6630.8500  516084.370000  33074.224396  4417.179013
    6635.8550  517866.750000  33475.337370  4479.605434
    6640.8690  520462.660000  33918.993807  4556.560884
    6645.8910  522424.090000  34352.118509  4631.045678
    6650.9190  524135.030000  34778.811693  4702.062969
    6655.9570  526809.500000  35253.964926  4781.603752
    6661.0960  529323.440000  35767.678943  4859.675484
    6666.1500  531592.940000  36215.892654  4931.277322
    6671.3050  533419.000000  36598.608906  4996.407887
    6676.4690  535370.500000  36985.836075  5059.071814
    6681.6420  537432.560000  37400.582620  5131.260202
    6686.8220  539494.120000  37823.851120  5203.980875
    6692.0110  540332.250000  38120.615618  5256.225734
    6697.3030  540060.870000  38338.931012  5292.003224
    6702.5090  514797.000000  36738.735005  5084.311633
    6707.7240  560236.620000  40322.040503  5600.143544
    6713.0420  555336.810000  40238.884110  5602.516067
    6718.3690  555419.500000  40523.201397  5654.403850
    6723.7050  556081.750000  40871.063379  5721.827892
    6729.0490  557630.440000  41303.425940  5796.779177
    6734.4030  557752.690000  41662.342208  5865.264952
    6739.7660  564510.500000  42505.733978  5999.277132
    6745.1370  563149.750000  42729.629486  6043.815867
    6750.6140  551007.560000  42137.055410  5976.885002
    6756.0030  564465.940000  43526.025441  6188.489567
    6761.4980  559257.750000  43442.466702  6193.612123
    6766.9060  572445.120000  44873.430469  6415.268618
    6772.4200  563064.000000  44539.894733  6383.453797
    6777.9430  577875.440000  46062.876506  6617.167073
    6783.4760  578445.370000  46449.426022  6692.417093
    6789.0180  578604.810000  46799.415133  6756.187189
    6794.5690  580011.750000  47246.962301  6837.494490
    6800.2280  577620.250000  47394.000352  6884.321955
    6805.7990  547837.250000  45652.585997  6643.688151
    6811.4770  597191.810000  49820.639780  7275.578666
    6817.0670  595183.870000  50090.250233  7327.998209
    6822.7650  595303.440000  50565.334812  7419.942136
    6828.4730  596519.500000  51097.978242  7515.427680
    6834.1900  598216.120000  51636.102740  7615.434882
    6839.9180  599836.250000  52196.722278  7716.969239
    6845.6560  601016.870000  52757.872558  7820.034795
    6851.4050  603242.000000  53382.578260  7932.628495
    6857.1630  605136.690000  53959.748280  8041.755189
    6863.0310  606521.940000  54540.464960  8154.410141
    6868.8100  608454.620000  55148.653646  8265.591808
    6874.6980  610222.870000  55688.365717  8368.304130
    6880.4980  610875.620000  56113.609154  8454.538270
    6886.4070  611898.940000  56602.385907  8546.314507
    6892.3270  613770.690000  57203.631798  8664.614123
    6898.2580  615603.060000  57814.428509  8777.445085
    6904.2000  618046.870000  58479.677224  8903.801283
    6910.1520  619819.250000  59143.512361  9027.684426
    6916.1150  621750.120000  59813.852165  9157.106786
    6922.0890  621546.500000  60283.638212  9251.046934
    6928.1750  623615.440000  60972.009386  9384.523501
    6934.1710  626018.870000  61671.845528  9519.520829
    6940.2790  626922.810000  62268.234927  9634.056983
    6946.2960  628223.310000  62889.152492  9761.125315
    6952.4280  629724.310000  63600.550148  9898.716680
    6958.5690  631746.810000  64342.456225  10045.840787
    6964.6200  632964.810000  65013.882771  10177.483989
    6970.7850  633742.370000  65618.818054  10300.665609
    6976.9600  636055.440000  66432.256511  10448.367325
    6983.1470  636953.060000  67007.259461  10565.616091
    6989.3470  637956.190000  67638.720889  10684.377344
    6995.6610  639257.810000  68297.750574  10813.678186
    7001.8820  640493.940000  68940.213635  10946.498790
    7008.1160  641095.620000  69513.266480  11066.855153
    7014.4650  642943.810000  70212.779117  11211.738762
    7020.7220  643727.500000  70783.823992  11335.149804
    7027.0960  644773.750000  71428.395050  11466.084225
    7033.3760  646763.500000  72191.527722  11622.567642
    7039.7740  648676.750000  72962.128486  11769.571549
    7046.1830  649838.560000  73656.173594  11909.089866
    7052.6040  650674.870000  74311.824603  12045.149958
    7059.0390  651584.690000  75009.920674  12187.738196
    7065.4840  652800.000000  75763.587682  12343.860373
    7071.9420  654053.870000  76542.773714  12503.513916
    7078.4130  655717.250000  77344.438554  12670.680148
    7084.8960  656661.190000  78107.586696  12829.384358
    7091.3910  657547.620000  78861.345271  12985.627738
    7097.8990  658411.560000  79522.516417  13128.378789
    7104.5260  659740.000000  80240.294831  13281.682337
    7111.0590  660909.000000  80971.493463  13434.501814

