# XDI/1.0
# Column.1: energy eV
# Column.2: i0
# Column.3: itrans
# Column.4: irefer
# Beamline.name: SSRL 4-1
# Detector.I0: N2 15cm
# Detector.I1: N2 30cm
# Detector.I2: N2 15cm
# Element.edge: K
# Element.symbol: Cr
# Mono.d_spacing: 3.13550
# Mono.name: Si(111)
# Mono.notes: unfocused, detuned 30%,counter clockwise at E=6200eV
# Sample.formula: Cr2O3
# Sample.name: Cr2O3 chromium sesquioxide
# Sample.prep: powder, mixed 1:100 with B(OH)3 by wt
# Sample.reference: none
# Sample.temperature: room temperature
# Scan.start_time: 1997-01-20 20:45:03
# ///
#    Note: mono d_spacing is nominal!
#     exafs to K15: not great data!!  fluorescence signal included
#     381  E XMU XMUF I0
#-------------
#   energy   i0   itrans  irefer
    5788.9990  520599.090000  39920.710308  39067.867051
    5799.6250  522626.090000  40963.698633  40078.969096
    5810.2500  523820.090000  41975.717053  41058.709261
    5820.8750  523650.090000  42939.695197  41989.778688
    5831.4990  525324.120000  44042.692321  43059.476462
    5842.1250  526857.120000  45148.695743  44130.117781
    5852.7490  528882.120000  46335.693012  45278.623400
    5863.3740  532952.120000  47684.699869  46584.871802
    5874.0000  535232.120000  48938.701343  47796.928588
    5884.6250  536946.120000  50185.681367  49001.532066
    5895.2500  538441.120000  51434.705550  50207.254583
    5905.8750  540244.120000  52768.694701  51496.115183
    5916.5000  541259.120000  54042.681313  52722.112473
    5927.1240  543274.120000  55491.675449  54112.471582
    5937.7490  544823.120000  56896.691384  55463.830829
    5948.3750  546022.120000  58260.683756  56779.805625
    5959.0020  548157.120000  59738.694599  58199.325259
    5959.7580  547709.120000  59777.679759  58232.766413
    5960.5160  548309.120000  59930.719226  58381.181044
    5961.2730  548351.120000  60033.684420  58480.534875
    5962.0310  548511.120000  60140.684122  58582.116626
    5962.7890  548300.120000  60198.702641  58638.146049
    5963.5440  548854.120000  60354.691741  58788.758033
    5964.3030  549239.120000  60483.699697  58911.106735
    5965.0620  548274.120000  60458.693565  58883.590402
    5965.8170  548617.120000  60585.693523  59005.566961
    5966.5760  549230.120000  60749.722590  59162.969786
    5967.3330  548862.120000  60792.672428  59202.452739
    5968.0920  549402.120000  60950.717781  59353.588490
    5968.8480  549850.120000  61096.692491  59495.186017
    5969.6050  549584.120000  61139.726722  59535.026901
    5970.3650  549365.120000  61200.678999  59592.554049
    5971.1200  549244.120000  61253.684683  59640.993957
    5971.8800  549421.120000  61261.722254  59647.486779
    5972.6380  549047.120000  61122.696781  59507.465580
    5973.3920  546260.120000  60961.728922  59346.662339
    5974.1500  544701.120000  61287.704308  59662.154450
    5974.9090  544374.120000  61623.711971  59987.069525
    5975.6670  544551.120000  61688.703231  60047.221175
    5976.4230  544336.120000  61503.674666  59862.629185
    5977.1820  544660.120000  61445.706705  59802.119119
    5977.9410  546821.120000  61787.725537  60134.834272
    5978.6970  548648.120000  62115.669800  60451.420699
    5979.4530  550268.120000  62389.728244  60715.929301
    5980.2100  550571.120000  62503.724031  60821.700990
    5980.9700  551139.120000  62660.687895  60971.951300
    5981.7280  551034.120000  62723.722854  61026.988516
    5982.4850  551179.120000  62800.676016  61098.864273
    5983.2420  550107.120000  62700.725773  60994.698033
    5984.0000  548403.120000  62385.672207  60681.687077
    5984.7570  538946.120000  60478.722140  58815.919792
    5985.5160  511156.090000  56942.671778  55354.044810
    5986.2740  501377.090000  59064.702326  57399.618251
    5987.0300  524469.120000  61367.694654  59642.274181
    5987.7890  540488.120000  62465.703192  60705.012760
    5988.5440  545970.120000  62884.722519  61088.802789
    5989.3040  547779.120000  62870.693938  61021.726324
    5990.0600  549392.120000  62811.704320  60873.008765
    5990.8200  549802.120000  62790.728779  60785.518113
    5991.5760  550517.120000  62909.680487  60890.296356
    5992.3330  550699.120000  62737.703478  60664.317692
    5993.0900  550579.120000  62295.716644  60124.787837
    5993.8480  550333.120000  61813.684229  59553.655994
    5994.6050  547513.120000  61500.691883  59211.750767
    5995.3630  544631.120000  61648.674037  59347.871178
    5996.1220  542098.120000  61634.699670  59307.352011
    5996.8790  542163.120000  61294.671584  58909.983507
    5997.6350  544061.120000  60760.724006  58242.164215
    5998.3940  547542.120000  60080.683881  57307.796569
    5999.1530  550222.120000  58768.679489  55625.392200
    5999.9090  551210.120000  56827.711170  53222.555895
    6000.6670  551874.120000  54975.683913  50929.013796
    6001.4240  551981.120000  53692.688774  49314.096971
    6002.1810  552242.120000  52940.708157  48359.156007
    6002.9400  552559.120000  52109.716693  47369.658713
    6003.6970  552423.120000  50837.703511  45888.409755
    6004.4550  552686.120000  49540.684716  44348.542536
    6005.2120  552266.120000  48192.674663  42779.509226
    6005.9700  552596.120000  46650.721393  41000.066601
    6006.7270  552620.120000  45358.691932  39472.255059
    6007.4860  553058.120000  44873.709802  38823.715940
    6008.2400  553048.120000  44917.703934  38815.890588
    6009.0000  553115.120000  45024.696640  38925.149306
    6009.0120  552979.120000  45001.698933  38905.352716
    6009.0390  552985.060000  45011.678795  38912.774300
    6009.0860  553447.060000  45043.608653  38941.666735
    6009.1550  552956.000000  44986.589415  38890.442733
    6009.2400  553747.000000  45043.509649  38937.628774
    6009.3480  553878.940000  45030.414670  38921.762559
    6009.4720  553709.870000  44970.280993  38863.291786
    6009.6160  553823.810000  44918.179600  38802.760992
    6009.7820  554107.750000  44853.030793  38729.402358
    6009.9660  554181.620000  44764.860462  38632.209324
    6010.1670  555265.560000  44743.692533  38578.066354
    6010.3900  555214.440000  44597.527376  38409.100262
    6010.6310  555677.310000  44515.290997  38298.301505
    6010.8930  556032.190000  44427.079770  38173.745481
    6011.1700  556312.060000  44390.851273  38109.149429
    6011.4710  556799.940000  44430.581340  38112.491956
    6011.7910  557196.810000  44537.321223  38197.753953
    6012.1290  557825.620000  44813.050580  38453.522513
    6012.4840  558290.500000  45161.747588  38800.965729
    6012.8610  559162.310000  45666.399592  39320.707511
    6013.2550  559251.120000  46164.061375  39865.564377
    6013.6710  559644.940000  46644.711106  40396.693879
    6014.1050  560476.690000  47180.357616  40980.397957
    6014.5610  561721.500000  47690.974944  41537.468506
    6015.0350  562184.310000  48043.543208  41928.318166
    6015.5270  562756.060000  48357.157605  42271.079323
    6016.0370  563274.810000  48651.693908  42580.386067
    6016.5680  564163.560000  49007.248192  42949.916721
    6017.1170  565209.310000  49392.773236  43349.138189
    6017.6880  565575.060000  49741.272389  43728.165714
    6018.2760  567216.750000  50191.791923  44191.952652
    6018.8830  567547.500000  50470.269810  44495.561663
    6019.5120  568635.190000  50718.720656  44749.728880
    6020.1580  569743.870000  50872.215443  44894.244827
    6020.8260  570413.560000  50848.602616  44848.342962
    6021.5090  571752.250000  50817.041869  44765.245496
    6022.2140  572389.940000  50688.419506  44579.796914
    6022.9400  573430.620000  50646.795076  44480.565026
    6023.6850  574847.250000  50725.175895  44502.659585
    6024.4440  575630.870000  50811.545611  44555.067880
    6025.2270  577103.560000  51072.885016  44786.100316
    6026.0270  577711.190000  51400.200463  45108.440173
    6026.8520  579143.750000  51937.481667  45657.679551
    6027.6900  580707.370000  52639.772430  46393.959329
    6028.5480  581526.000000  53284.031140  47087.123767
    6029.4270  582839.560000  53977.319616  47830.095351
    6030.3240  583995.120000  54629.532600  48536.972477
    6031.2400  585638.750000  55277.730938  49219.088796
    6032.1780  587337.310000  55860.934434  49828.638475
    6033.1350  588543.870000  56372.106433  50365.724253
    6034.1090  589836.370000  56859.320711  50870.529082
    6035.1020  591225.940000  57367.460110  51395.295731
    6036.1160  592728.440000  57862.606762  51903.828351
    6037.1470  593814.000000  58232.705031  52280.065364
    6038.2020  595744.500000  58626.797301  52660.917862
    6039.2730  597224.000000  58947.914705  52954.828220
    6040.3620  598784.500000  59192.968950  53167.971050
    6041.4730  600023.940000  59344.031670  53275.499532
    6042.6040  601907.440000  59512.042042  53381.710075
    6043.7520  603246.870000  59645.071168  53456.493418
    6044.9190  605201.370000  59914.062607  53669.106908
    6046.1080  606780.810000  60185.088486  53900.056279
    6047.3130  608535.250000  60455.033459  54127.086763
    6048.5400  610395.690000  60659.994950  54277.567444
    6049.7860  608885.060000  60499.948528  54067.194428
    6051.0500  613826.500000  60728.876810  54184.013709
    6052.3330  615757.870000  60670.756931  54021.791858
    6053.6350  617926.310000  60684.675962  53927.416897
    6054.9590  619517.690000  60699.548265  53857.106103
    6056.3000  621250.060000  60780.357783  53852.841760
    6057.6630  622703.370000  60775.228124  53760.681550
    6059.0440  624395.750000  60794.077950  53683.274012
    6060.4440  625469.120000  60767.855710  53568.031354
    6061.8600  627281.440000  60842.667293  53547.494489
    6063.2990  629453.750000  60986.429961  53604.964217
    6064.7570  631195.120000  61177.167399  53723.044213
    6066.2340  633132.440000  61454.903301  53936.003650
    6067.7290  635550.690000  61777.662531  54189.239277
    6069.2450  637104.000000  62041.338170  54390.875366
    6070.7830  639891.310000  62494.048850  54776.558279
    6072.3360  642190.560000  62974.701489  55205.704044
    6073.9100  644237.810000  63483.366590  55675.451804
    6075.5020  646619.060000  64066.995602  56217.963560
    6077.1140  648738.310000  64567.643781  56679.404876
    6078.7450  650994.560000  65096.272258  57161.739562
    6080.3960  653914.810000  65754.827015  57771.991553
    6082.0660  655997.000000  66374.451493  58367.160751
    6083.7560  657952.250000  67039.993573  59007.700970
    6085.4650  660438.440000  67735.534056  59677.592653
    6087.1910  663500.620000  68494.043701  60399.213795
    6088.9400  665362.810000  69125.553762  61001.696230
    6090.7050  668402.000000  69911.054839  61749.494481
    6092.4890  670380.190000  70548.541105  62363.246235
    6094.2960  673279.310000  71236.994264  63004.475644
    6096.1210  676388.500000  71822.486904  63516.792205
    6097.9650  678361.620000  72173.901724  63794.929265
    6099.8260  681474.750000  72662.265068  64185.113048
    6101.7090  684290.870000  73163.676547  64598.744510
    6103.6130  687138.000000  73740.055497  65095.905091
    6105.5330  689627.060000  74320.435830  65605.770611
    6107.4740  692794.190000  75024.743387  66241.222860
    6109.4310  695290.250000  75681.094306  66841.241936
    6111.4120  697987.310000  76345.410771  67442.226122
    6113.4090  701003.370000  77013.728213  68032.477023
    6115.4260  703974.440000  77616.966882  68551.442490
    6117.4640  707086.500000  78194.241471  69028.503007
    6119.5190  709564.560000  78718.522705  69468.776048
    6121.5970  712676.560000  79381.765240  70041.280170
    6123.6930  715512.620000  80044.940793  70624.918597
    6125.8050  719132.620000  80830.129942  71315.913363
    6127.9380  722360.620000  81523.350457  71920.172444
    6130.0910  725304.620000  82213.517263  72517.617484
    6132.2610  728409.620000  82852.635577  73051.206547
    6134.4530  731331.560000  83389.793966  73477.954861
    6136.6640  734128.560000  83907.933092  73873.676720
    6138.8930  737764.500000  84544.977257  74376.644012
    6141.1430  740465.500000  85060.098045  74777.777043
    6143.4140  744013.440000  85727.108933  75312.919906
    6145.7010  747951.370000  86476.176731  75929.043232
    6148.0070  750852.250000  87169.185810  76518.595883
    6150.3330  754277.190000  88014.267009  77256.961363
    6152.6800  757974.060000  88938.237079  78080.759044
    6155.0450  760916.000000  89731.239124  78778.709054
    6157.4280  764936.870000  90503.208901  79411.008723
    6159.8320  768868.750000  91153.170034  79897.932691
    6162.2560  771541.620000  91710.109377  80315.209959
    6164.6990  775231.500000  92463.012014  80925.234247
    6167.1600  778338.310000  93232.863800  81564.447565
    6169.6410  782575.190000  94286.781728  82511.923259
    6172.1410  786213.000000  95430.644503  83570.780888
    6174.6590  790801.810000  96765.485903  84811.341683
    6177.1980  793596.690000  97726.365562  85691.692601
    6179.7550  797710.440000  98740.152220  86576.046193
    6182.3340  800817.250000  99534.943028  87238.013341
    6184.9310  804578.060000  100451.798038  88013.920629
    6187.5470  807891.810000  101404.569175  88843.460564
    6190.1840  811750.620000  102452.284669  89762.112346
    6192.8400  816355.370000  103638.073031  90805.255384
    6195.5100  820510.120000  104876.791239  91921.444153
    6198.2050  823923.870000  106146.491452  93103.468094
    6200.9160  827441.620000  107478.148261  94353.262972
    6203.6480  832260.310000  108961.789365  95722.852637
    6206.4010  836349.060000  110228.453468  96864.448383
    6209.1700  839462.750000  111220.098110  97723.601781
    6211.9590  844192.440000  112386.685955  98711.571442
    6214.7710  847888.120000  113384.272718  99543.127566
    6217.5970  851868.810000  114345.953869  100316.916132
    6220.4460  856482.500000  115302.474167  101051.641239
    6223.3130  860246.120000  116101.003764  101635.616961
    6226.2000  865304.810000  117151.600445  102455.865602
    6229.1050  869152.440000  118099.150474  103201.772667
    6232.0310  873396.060000  119226.629310  104133.677040
    6234.9740  876305.690000  119916.059189  104722.237854
    6237.9380  870972.310000  120807.598535  105509.161214
    6240.9200  885951.940000  123180.000626  107578.907907
    6243.9220  871437.560000  121730.455075  106292.201104
    6246.9440  892850.120000  125674.939483  109737.102509
    6249.9840  898766.690000  127256.340220  111119.286684
    6253.0440  903337.310000  128677.725606  112354.620913
    6256.1250  907867.870000  130064.027754  113543.820986
    6259.2240  912010.370000  131333.430519  114595.720497
    6262.3390  916910.940000  132641.811226  115668.280831
    6265.4780  921584.500000  133994.060082  116800.654179
    6268.6340  926347.000000  135542.452587  118138.964223
    6271.8120  931472.560000  137196.709497  119583.507129
    6275.0070  935118.060000  138659.014850  120874.049313
    6278.2220  940040.560000  140392.212464  122403.739768
    6281.4540  944795.060000  142037.489916  123833.303707
    6284.7090  949742.500000  143671.708562  125238.183878
    6287.9810  954808.000000  145244.898534  126574.032375
    6291.2720  959619.440000  146777.052993  127849.627633
    6294.5840  964564.940000  148363.324441  129179.312725
    6297.9140  969428.370000  149956.400499  130526.006249
    6301.2630  974194.810000  151498.586354  131794.236755
    6304.6330  978600.250000  152965.779706  132991.568879
    6308.0210  983479.620000  154571.831285  134316.951365
    6311.4290  988398.060000  156320.988422  135811.284936
    6314.8540  993257.440000  158168.019922  137412.147444
    6318.3020  998633.870000  160173.117546  139160.412567
    6321.7650  1003032.200000  161997.174081  140755.197165
    6325.2520  1008644.600000  164117.187139  142616.688085
    6328.7570  1013989.000000  166266.236174  144518.877039
    6332.2790  1018815.300000  168289.171836  146287.192381
    6335.8220  1023806.700000  170271.124776  148006.296718
    6339.3830  1029338.000000  172340.152751  149785.288125
    6342.9650  1034759.400000  174339.093317  151465.142339
    6346.5640  1039910.700000  176255.936442  153051.952574
    6350.1860  1044738.000000  178093.984768  154577.627769
    6353.8250  1050207.300000  180068.773377  156198.299746
    6357.4850  1056306.600000  182231.665141  157995.849396
    6361.1630  1060538.900000  184079.633390  159537.412228
    6364.8590  1065729.100000  186146.397014  161256.383881
    6368.5740  1071399.400000  188324.195801  163077.985237
    6372.3100  1076854.600000  190562.964716  164963.801239
    6376.0670  1082580.900000  192965.842523  167014.142005
    6379.8400  1087624.100000  195259.583627  168979.274515
    6383.6340  1094108.400000  197810.413417  171157.753103
    6387.4470  1098646.600000  199901.218619  172884.361028
    6391.2790  1104478.900000  202215.896057  174786.166139
    6395.1320  1110129.000000  204517.695800  176671.116230
    6399.0030  1115281.300000  206813.400337  178583.832186
    6402.8920  1121470.400000  209407.048931  180775.812825
    6406.8010  1126389.600000  211809.598832  182804.495726
    6410.7320  1131635.800000  214315.338657  184910.361560
    6414.6800  1139627.900000  217311.994712  187441.366517
    6418.6460  1143241.000000  219457.477684  189221.349321
    6422.6340  1149729.300000  222283.101702  191601.520698
    6426.6390  1155305.400000  224978.761314  193887.075317
    6430.6670  1160967.500000  227699.320345  196175.288413
    6434.7080  1166276.500000  230315.814663  198363.454010
    6438.7740  1172161.600000  233005.450173  200605.530430
    6442.8590  1177993.800000  235752.871341  202894.532772
    6446.9600  1184369.900000  238748.377182  205422.468846
    6451.0830  1189433.900000  241638.971428  207903.422846
    6455.2240  1197005.000000  245154.318248  210949.102217
    6459.3830  1201425.000000  247939.962771  213322.932215
    6463.5620  1207848.100000  251162.370788  216078.318055
    6467.7610  1213269.100000  254133.757058  218597.170298
    6471.9830  1220446.100000  257500.001680  221415.876356
    6476.2180  1226262.300000  260536.519506  223936.010002
    6480.4770  1232050.300000  263573.949318  226452.015681
    6484.7510  1237044.300000  266506.380245  228889.209277
    6489.0470  1243233.300000  269740.602298  231555.749931
    6493.3630  1250423.300000  273144.897095  234359.840235
    6497.6980  1255578.100000  276127.132029  236796.182802
    6502.0500  1261766.100000  279452.598751  239531.081535
    6506.4220  1268745.100000  283084.823018  242537.995533
    6510.8160  1274135.100000  286301.907441  245206.294464
    6515.2290  1280921.000000  289829.155213  248089.713672
    6519.6600  1287126.000000  293150.492930  250768.751300
    6524.1070  1293812.900000  296741.643845  253733.188055
    6528.5810  1300323.800000  300428.740483  256791.299132
    6533.0690  1305448.800000  303905.004897  259661.580230
    6537.5760  1311551.600000  307693.187741  262800.041045
    6542.1030  1318952.500000  311903.280059  266333.861430
    6546.6480  1325295.400000  315902.511150  269710.849392
    6551.2140  1331702.300000  319947.630471  273108.629862
    6555.8010  1337586.100000  323899.683988  276420.968122
    6560.4060  1343479.000000  327972.839029  279827.851247
    6565.0290  1350117.800000  332272.736410  283444.015332
    6569.6720  1356937.600000  336640.863442  287108.609645
    6574.3340  1363200.500000  340886.822327  290645.096401
    6579.0180  1369637.300000  345073.776551  294084.822975
    6583.7180  1376495.100000  349387.899482  297601.119533
    6588.4380  1382019.900000  353425.037071  300859.808465
    6593.1790  1389311.600000  357897.864731  304474.503607
    6597.9370  1395385.400000  362106.703159  307900.084232
    6602.7150  1402186.300000  366527.642120  311464.990033
    6607.5150  1409908.000000  371346.553480  315406.673458
    6612.3320  1416080.800000  375914.353716  319203.820591
    6617.1680  1422151.500000  380564.297555  323072.690139
    6622.0220  1428630.300000  385366.346835  327039.196953
    6626.8960  1436825.900000  390631.915321  331377.670544
    6631.7920  1443438.600000  395511.736829  335404.096368
    6636.7060  1449321.400000  400301.785290  339356.041406
    6641.6390  1455065.000000  405092.668542  343288.139768
    6646.5910  1462461.800000  410559.333941  347811.010544
    6651.5620  1468796.400000  415625.896701  351971.803566
    6656.5510  1474990.100000  420801.639214  356241.530365
    6661.5640  1482413.800000  426330.549917  360795.236017
    6666.5920  1488492.400000  431421.286093  364950.845493
    6671.6400  1496954.000000  437328.949084  369789.141675
    6676.7100  1502577.800000  442406.633938  373928.216849
    6681.7950  1508370.400000  447643.493307  378186.303934
    6686.9010  1514946.000000  453047.091010  382565.267900
    6692.0300  1521583.500000  458536.477963  386977.459785
    6697.1750  1527085.100000  463720.979402  391117.854942
    6702.3380  1530730.800000  468266.953806  394783.631872
    6707.5220  1533245.400000  471591.405487  397407.635805
    6712.7270  1505656.900000  463468.100874  390316.738832
    6717.9460  1509496.500000  485332.600678  408669.855369
    6723.1900  1554378.000000  488568.039652  410832.070985
    6728.4500  1578325.600000  502836.374140  422821.716944
    6733.7300  1582004.100000  508134.786418  427157.603501
    6739.0300  1574319.600000  506141.592856  425299.768493
    6744.3500  1591297.100000  519862.185625  436619.693151
    6749.6870  1595846.600000  525101.542462  440878.469500
    6755.0440  1612214.100000  536585.937311  450302.568211
    6760.4220  1615876.600000  541220.554345  454036.674120
    6765.8160  1588080.100000  536968.847833  450372.033062
    6771.2360  1631575.600000  556140.217768  466224.068702
    6776.6670  1633531.100000  561449.184054  470464.201350
    6782.1240  1622140.500000  558529.731908  467764.213840
    6787.5980  1577957.000000  560792.101541  469636.246459
    6793.0880  1637980.400000  570169.279621  476790.980354
    6798.6000  1678858.900000  597589.829896  499757.367393
    6804.1330  1681112.300000  602879.858144  503995.901780
    6809.6830  1685536.600000  609479.460283  509316.916768
    6815.2540  1691182.100000  616658.280954  515102.459242
    6820.8420  1696970.500000  624026.528736  521035.918828
    6826.4480  1703571.900000  631668.002379  527170.878404
    6832.0760  1713071.300000  640672.252971  534458.839674
    6837.7260  1716801.600000  647493.402183  539934.860643
    6843.3930  1723122.000000  655411.538084  546260.758141
    6849.0770  1729946.300000  663668.744711  552846.146405
    6854.7840  1736576.600000  671928.867463  559481.735520
    6860.5080  1743205.000000  680309.030745  566194.609369
    6866.2500  1749543.300000  688600.144968  572814.804656

