# XDI/1.0
# Column.1: energy eV
# Column.2: i0
# Column.3: itrans
# Column.4: irefer
# Beamline.name: SSRL 4-1
# Detector.I0: N2 15cm
# Detector.I1: N2 30cm
# Detector.I2: N2 15cm
# Element.edge: K
# Element.symbol: Cr
# Mono.d_spacing: 3.13550
# Mono.name: Si(111)
# Mono.notes: unfocused, detuned 30%,counter clockwise at E=6200eV
# Sample.formula: Cr2O3
# Sample.name: Cr2O3 chromium sesquioxide
# Sample.prep: powder, mixed 1:100 with B(OH)3 by wt
# Sample.reference: none
# Sample.temperature: room temperature
# Scan.start_time: 1997-01-20 20:45:03
# ///
#    Note: mono d_spacing is nominal!
#     exafs to K15: not great data!!  fluorescence signal included
#     381  E XMU XMUF I0
#-------------
#   energy   i0   itrans  irefer
    5788.9990  520291.090000  40346.693400  39483.865631
    5799.6250  521918.090000  41356.709102  40462.990838
    5810.2500  523877.090000  42428.703212  41501.899021
    5820.8750  525979.120000  43538.713862  42578.225161
    5831.4990  528111.120000  44692.679387  43697.098154
    5842.1250  529361.120000  45784.694107  44754.315484
    5852.7490  531151.120000  46948.702799  45879.925381
    5863.3740  533213.120000  48190.706639  47081.687931
    5874.0000  534814.120000  49403.696398  48249.643409
    5884.6250  536599.120000  50657.702796  49461.191305
    5895.2500  538135.120000  51918.681698  50678.420106
    5905.8750  539806.120000  53246.711033  51960.804152
    5916.5000  541541.120000  54610.709094  53273.601698
    5927.1240  543140.120000  55982.678732  54591.334673
    5937.7490  544470.120000  57377.719436  55932.847245
    5948.3750  546311.120000  58853.695696  57358.000696
    5959.0020  547504.120000  60233.699423  58678.354255
    5959.7580  548128.120000  60402.715059  58843.040312
    5960.5160  548041.120000  60485.720999  58920.970364
    5961.2730  547817.120000  60538.680547  58970.528292
    5962.0310  547844.120000  60639.699990  59069.438992
    5962.7890  548258.120000  60769.693222  59191.516423
    5963.5440  548083.120000  60848.669520  59267.943869
    5964.3030  548213.120000  60942.702316  59357.522223
    5965.0620  548302.120000  61041.712924  59451.826080
    5965.8170  548676.120000  61167.703037  59571.589374
    5966.5760  549122.120000  61321.704939  59718.504923
    5967.3330  549120.120000  61408.681360  59802.221278
    5968.0920  549028.120000  61478.693068  59868.391055
    5968.8480  548975.120000  61565.713818  59951.668447
    5969.6050  549225.120000  61694.723715  60075.615801
    5970.3650  549452.120000  61791.674360  60166.850608
    5971.1200  549518.120000  61847.689939  60220.270730
    5971.8800  549198.120000  61794.678400  60163.666327
    5972.6380  547969.120000  61559.669179  59933.670257
    5973.3920  546146.120000  61588.709043  59958.122427
    5974.1500  544102.120000  61869.724078  60228.836535
    5974.9090  544330.120000  62240.685961  60586.857768
    5975.6670  544668.120000  62268.685255  60610.341180
    5976.4230  544135.120000  62019.670346  60364.364455
    5977.1820  544820.120000  62022.714766  60365.613816
    5977.9410  547206.120000  62426.667662  60755.511383
    5978.6970  548863.120000  62729.704057  61048.762762
    5979.4530  549788.120000  62911.688153  61223.879887
    5980.2100  550548.120000  63092.718317  61393.771202
    5980.9700  550458.120000  63166.675581  61463.006099
    5981.7280  550557.120000  63263.700383  61554.027248
    5982.4850  550975.120000  63371.716750  61655.034807
    5983.2420  550177.120000  63300.692101  61578.555981
    5984.0000  547346.120000  62778.669795  61063.697021
    5984.7570  535512.120000  60393.683562  58732.370576
    5985.5160  507020.090000  57445.727244  55838.987608
    5986.2740  502861.090000  59949.705494  58260.534096
    5987.0300  528077.120000  62198.714582  60451.290415
    5987.7890  541313.120000  63085.685616  61304.981962
    5988.5440  545657.120000  63395.684616  61580.311635
    5989.3040  547733.120000  63413.714877  61536.488082
    5990.0600  548896.120000  63292.713178  61326.930339
    5990.8200  549446.120000  63325.729532  61301.809806
    5991.5760  549905.120000  63404.684977  61368.075335
    5992.3330  550315.120000  63218.694699  61118.649553
    5993.0900  550517.120000  62802.699278  60602.080531
    5993.8480  549243.120000  62225.705434  59946.290621
    5994.6050  546462.120000  62012.686892  59706.781171
    5995.3630  543384.120000  62146.684709  59829.119653
    5996.1220  541268.120000  62093.713803  59743.740679
    5996.8790  541415.120000  61686.697278  59272.449003
    5997.6350  544230.120000  61213.709270  58646.532540
    5998.3940  547456.120000  60448.714563  57607.145415
    5999.1530  550072.120000  59061.684450  55826.531813
    5999.9090  550872.120000  57055.683535  53352.112027
    6000.6670  551338.120000  55222.709290  51084.514532
    6001.4240  551541.120000  54054.694561  49602.185547
    6002.1810  551490.120000  53299.711785  48658.489928
    6002.9400  551949.120000  52412.696842  47604.250721
    6003.6970  551882.120000  51111.701990  46081.896524
    6004.4550  552047.120000  49822.685127  44545.943953
    6005.2120  552530.120000  48528.679241  43024.045098
    6005.9700  551744.120000  46834.700323  41104.133494
    6006.7270  552195.120000  45674.696711  39702.928951
    6007.4860  552196.120000  45276.687397  39158.404473
    6008.2400  552701.120000  45411.682024  39244.491297
    6009.0000  552941.120000  45504.695666  39339.957085
    6009.0120  552736.120000  45474.680958  39314.873531
    6009.0390  552711.060000  45478.667483  39315.929577
    6009.0860  552504.060000  45435.638304  39278.794056
    6009.1550  552955.000000  45460.582140  39297.068526
    6009.2400  552910.000000  45438.476205  39274.161703
    6009.3480  553077.940000  45413.387113  39246.906739
    6009.4720  553663.870000  45421.282365  39242.646241
    6009.6160  553402.810000  45317.177054  39136.711716
    6009.7820  553745.750000  45263.032801  39069.376343
    6009.9660  554235.620000  45211.880860  39001.094241
    6010.1670  554145.560000  45069.709715  38839.803955
    6010.3900  554229.440000  44944.516062  38687.264092
    6010.6310  555042.310000  44908.287074  38616.055866
    6010.8930  555582.190000  44852.106494  38523.812436
    6011.1700  555929.060000  44836.865703  38479.490928
    6011.4710  556504.940000  44912.585116  38524.967885
    6011.7910  556454.810000  45001.326336  38600.779226
    6012.1290  557408.620000  45341.039862  38923.838568
    6012.4840  557390.500000  45653.719003  39248.101416
    6012.8610  558058.310000  46166.408973  39782.577100
    6013.2550  559189.120000  46754.089805  40404.195733
    6013.6710  559766.940000  47244.701899  40946.699900
    6014.1050  559893.690000  47693.347675  41456.311029
    6014.5610  560383.500000  48123.969085  41936.005208
    6015.0350  561361.310000  48518.576468  42361.064259
    6015.5270  562192.060000  48851.131223  42714.670612
    6016.0370  562741.810000  49144.695996  43026.161004
    6016.5680  563739.560000  49518.254125  43409.854251
    6017.1170  564296.310000  49864.757259  43778.716993
    6017.6880  565204.060000  50264.287460  44201.968933
    6018.2760  566108.750000  50636.780397  44597.843131
    6018.8830  566823.500000  50950.265354  44930.527693
    6019.5120  568157.190000  51221.743693  45201.439035
    6020.1580  568441.870000  51273.192714  45247.248263
    6020.8260  569919.560000  51328.606486  45265.186544
    6021.5090  570656.250000  51226.040915  45115.813382
    6022.2140  571684.940000  51147.419192  44976.985942
    6022.9400  572682.620000  51095.818875  44867.862062
    6023.6850  573509.250000  51138.163882  44865.210181
    6024.4440  575136.870000  51319.512848  45004.250788
    6025.2270  575956.560000  51524.851320  45184.971435
    6026.0270  576805.190000  51903.207191  45557.040759
    6026.8520  578517.750000  52496.485734  46163.882531
    6027.6900  579148.370000  53106.784949  46822.380148
    6028.5480  580622.000000  53830.054376  47590.146938
    6029.4270  581734.560000  54494.308293  48305.588660
    6030.3240  583013.120000  55142.552202  49005.541835
    6031.2400  584416.750000  55775.758602  49676.055749
    6032.1780  585822.310000  56326.916886  50254.410706
    6033.1350  587267.870000  56858.120627  50809.581705
    6034.1090  588412.370000  57326.328974  51295.632475
    6035.1020  589715.940000  57839.443899  51828.073573
    6036.1160  591659.440000  58380.574092  52376.231918
    6037.1470  593081.000000  58788.719030  52784.758447
    6038.2020  593895.500000  59060.797412  53052.504703
    6039.2730  596164.000000  59449.891436  53407.591405
    6040.3620  597362.500000  59662.944456  53589.155873
    6041.4730  599030.940000  59857.051795  53735.418664
    6042.6040  600781.440000  60016.060886  53831.263688
    6043.7520  601974.870000  60124.096438  53884.534123
    6044.9190  604154.370000  60435.080828  54137.052729
    6046.1080  605749.810000  60712.101628  54374.122211
    6047.3130  607536.250000  60978.042735  54595.761101
    6048.5400  609393.690000  61182.029578  54741.314238
    6049.7860  611019.060000  61232.932250  54724.026453
    6051.0500  612495.500000  61178.853298  54577.766642
    6052.3330  614305.870000  61124.756474  54417.928290
    6053.6350  616674.310000  61168.663491  54352.767048
    6054.9590  618355.690000  61201.508754  54296.775496
    6056.3000  619490.060000  61213.371594  54231.252450
    6057.6630  621618.370000  61287.220800  54209.130376
    6059.0440  622451.750000  61215.052508  54051.117290
    6060.4440  623805.120000  61238.863464  53977.187948
    6061.8600  625307.440000  61277.665727  53928.345639
    6063.2990  627659.750000  61446.398169  54006.468168
    6064.7570  629469.120000  61656.200321  54144.120930
    6066.2340  631366.440000  61920.940801  54346.962432
    6067.7290  633897.690000  62267.621350  54621.024306
    6069.2450  636166.000000  62626.376273  54906.757895
    6070.7830  638069.310000  62986.027357  55211.314980
    6072.3360  640133.560000  63446.741794  55626.040286
    6073.9100  642797.810000  64018.379825  56148.767280
    6075.5020  644756.060000  64557.999946  56653.254989
    6077.1140  647387.310000  65131.658704  57178.573544
    6078.7450  649082.560000  65598.243502  57606.028271
    6080.3960  651655.810000  66211.854888  58177.339530
    6082.0660  654439.000000  66929.403186  58861.791566
    6083.7560  656749.250000  67638.022408  59546.361057
    6085.4650  659322.440000  68356.503024  60229.682865
    6087.1910  661533.620000  69012.096867  60859.498618
    6088.9400  664184.810000  69736.540829  61548.078835
    6090.7050  666105.000000  70389.092549  62177.501107
    6092.4890  669225.190000  71181.546778  62928.125521
    6094.2960  671401.310000  71759.986935  63470.462214
    6096.1210  674131.500000  72321.481104  63960.230754
    6097.9650  677229.620000  72802.870781  64351.097446
    6099.8260  679571.750000  73194.319856  64658.890966
    6101.7090  681916.870000  73650.708223  65029.854140
    6103.6130  684673.000000  74211.071603  65513.776713
    6105.5330  687772.060000  74895.400111  66118.571952
    6107.4740  690792.190000  75585.770191  66743.882189
    6109.4310  693603.250000  76282.084793  67376.649490
    6111.4120  696186.310000  76948.418771  67978.495417
    6113.4090  698702.370000  77552.711811  68510.434187
    6115.4260  702104.440000  78198.007516  69065.578611
    6117.4640  704833.500000  78735.222138  69512.493896
    6119.5190  707468.560000  79285.494322  69971.694107
    6121.5970  710529.560000  79955.765554  70552.326275
    6123.6930  713947.620000  80696.935317  71203.380648
    6125.8050  716913.620000  81384.135558  71806.324644
    6127.9380  719931.620000  82078.346421  72409.241428
    6130.0910  722589.620000  82712.476384  72959.475277
    6132.2610  725943.620000  83379.656555  73518.468988
    6134.4530  728651.560000  83899.751191  73925.967107
    6136.6640  732830.560000  84593.930078  74474.859760
    6138.8930  735696.500000  85139.975237  74901.608797
    6141.1430  738751.500000  85706.065510  75347.413588
    6143.4140  741757.440000  86284.181915  75801.682537
    6145.7010  745220.370000  86982.154184  76376.050607
    6148.0070  748637.250000  87759.187155  77036.955924
    6150.3330  752403.190000  88655.257514  77828.371519
    6152.6800  755246.060000  89490.243077  78571.599407
    6155.0450  758156.000000  90280.200175  79263.874439
    6157.4280  762014.870000  91051.207673  79890.374001
    6159.8320  764959.750000  91592.117828  80284.134056
    6162.2560  768763.620000  92299.113419  80832.025002
    6164.6990  771820.500000  92979.962229  81376.555051
    6167.1600  775205.310000  93800.943106  82069.061843
    6169.6410  779208.190000  94856.788342  83014.032772
    6172.1410  782828.000000  96007.662301  84084.437637
    6174.6590  786540.810000  97199.504067  85202.485783
    6177.1980  789751.690000  98232.348895  86142.971879
    6179.7550  794021.440000  99253.130775  87028.683820
    6182.3340  797262.250000  100083.983757  87722.548087
    6184.9310  801695.060000  101089.808127  88577.671495
    6187.5470  804981.810000  102056.510144  89417.667070
    6190.1840  809054.620000  103112.273673  90343.975048
    6192.8400  813073.370000  104222.011674  91318.258527
    6195.5100  816973.120000  105459.732064  92446.360836
    6198.2050  820797.870000  106787.393309  93675.902535
    6200.9160  824029.620000  108090.136457  94895.195358
    6203.6480  828414.310000  109521.776720  96222.796902
    6206.4010  832048.060000  110722.514669  97307.396481
    6209.1700  835747.750000  111806.067817  98237.226597
    6211.9590  839748.440000  112878.765466  99144.657528
    6214.7710  844773.120000  114072.372592  100145.506586
    6217.5970  847881.810000  114903.914276  100806.672721
    6220.4460  852369.500000  115863.539877  101547.576054
    6223.3130  856536.120000  116725.087269  102185.918907
    6226.2000  860556.810000  117633.591094  102882.250292
    6229.1050  864773.440000  118648.169324  103680.520573
    6232.0310  869119.060000  119792.625130  104635.985692
    6234.9740  872128.690000  120425.101251  105176.195196
    6237.9380  868147.310000  121559.567757  106178.560749
    6240.9200  881410.940000  123731.013622  108070.442989
    6243.9220  866973.560000  122508.507965  106985.475296
    6246.9440  888947.120000  126332.933459  110312.974792
    6249.9840  893729.690000  127775.314917  111582.817080
    6253.0440  898851.310000  129286.726760  112891.832517
    6256.1250  903198.870000  130626.063162  114036.464551
    6259.2240  908114.370000  132008.501896  115191.968600
    6262.3390  912971.940000  133315.719542  116257.696215
    6265.4780  917182.500000  134647.125487  117373.701073
    6268.6340  922021.000000  136207.437561  118720.821599
    6271.8120  926495.560000  137759.753796  120078.831166
    6275.0070  931068.060000  139382.001899  121509.540070
    6278.2220  935869.560000  141102.292743  123024.682724
    6281.4540  941156.060000  142824.552397  124527.947756
    6284.7090  944533.500000  144167.692720  125677.556914
    6287.9810  949785.000000  145821.991742  127079.203693
    6291.2720  954400.440000  147326.075636  128325.772950
    6294.5840  960240.940000  149046.335206  129773.098865
    6297.9140  963952.370000  150463.402924  130957.282819
    6301.2630  969057.810000  152060.621889  132285.937050
    6304.6330  974029.250000  153616.822161  133551.214568
    6308.0210  978112.620000  155090.810069  134770.565361
    6311.4290  983952.060000  157017.015170  136411.380455
    6314.8540  988685.440000  158875.078306  138033.101507
    6318.3020  993901.870000  160851.162268  139750.708173
    6321.7650  997796.250000  162630.067526  141306.797748
    6325.2520  1003356.600000  164760.228787  143178.980305
    6328.7570  1008866.000000  166931.109072  145098.207574
    6332.2790  1013968.300000  169018.118855  146928.933064
    6335.8220  1018344.700000  170919.168327  148572.320274
    6339.3830  1023671.000000  172959.154404  150322.421646
    6342.9650  1028653.400000  174856.012095  151925.192823
    6346.5640  1034135.700000  176826.015234  153550.957768
    6350.1860  1039340.000000  178729.979999  155120.180616
    6353.8250  1044568.300000  180652.802157  156712.132127
    6357.4850  1049562.600000  182637.768648  158355.876786
    6361.1630  1055290.900000  184759.641000  160122.979601
    6364.8590  1060307.100000  186817.436041  161837.502710
    6368.5740  1065257.400000  188904.338058  163584.330310
    6372.3100  1071413.600000  191283.032556  165593.646892
    6376.0670  1075939.900000  193461.956159  167450.968685
    6379.8400  1081630.100000  195919.631945  169564.219987
    6383.6340  1087153.400000  198277.387949  171566.148798
    6387.4470  1093079.600000  200669.105979  173558.585783
    6391.2790  1097984.900000  202785.925759  175282.449452
    6395.1320  1103764.000000  205141.592506  177214.955903
    6399.0030  1110210.300000  207730.327440  179372.336177
    6402.8920  1115680.400000  210191.016991  181452.048281
    6406.8010  1121127.600000  212721.594683  183592.264241
    6410.7320  1126220.800000  215168.379447  185655.569809
    6414.6800  1132341.900000  217788.028835  187855.217220
    6418.6460  1137037.000000  220181.682480  189850.502784
    6422.6340  1144445.300000  223229.266552  192437.272687
    6426.6390  1149381.400000  225791.761131  194591.105784
    6430.6670  1154731.500000  228442.406537  196826.696507
    6434.7080  1159492.500000  230940.866453  198911.358013
    6438.7740  1166198.600000  233854.395050  201338.199426
    6442.8590  1171896.800000  236606.852061  203637.634250
    6446.9600  1177391.900000  239407.475114  205991.296316
    6451.0830  1183228.900000  242464.991834  208613.745904
    6455.2240  1188904.000000  245590.411236  211330.519986
    6459.3830  1195270.000000  248831.853266  214102.009268
    6463.5620  1201351.100000  251989.172186  216790.081520
    6467.7610  1207795.100000  255251.604981  219558.617044
    6471.9830  1213433.100000  258283.002806  222092.484920
    6476.2180  1218926.300000  261269.559209  224571.326240
    6480.4770  1224664.300000  264323.847014  227096.070181
    6484.7510  1231214.300000  267574.276551  229800.926493
    6489.0470  1236100.300000  270510.464578  232217.604754
    6493.3630  1242978.300000  273858.796851  234974.978403
    6497.6980  1249298.100000  277128.182701  237662.251060
    6502.0500  1255231.100000  280380.603406  240328.557819
    6506.4220  1261386.100000  283837.665580  243190.034981
    6510.8160  1267160.100000  287180.096767  245959.830961
    6515.2290  1274739.000000  290892.193877  249013.081382
    6519.6600  1280666.000000  294233.460071  251703.632550
    6524.1070  1286739.900000  297632.674200  254497.163175
    6528.5810  1292560.800000  301217.816498  257459.505076
    6533.0690  1299839.800000  305232.965113  260800.332529
    6537.5760  1305620.600000  308913.333137  263879.685433
    6542.1030  1311001.500000  312653.212156  267000.338964
    6546.6480  1317079.400000  316608.497979  270320.228706
    6551.2140  1323579.300000  320693.531566  273764.414858
    6555.8010  1330427.100000  324842.775468  277244.391637
    6560.4060  1337958.000000  329337.759926  281025.089004
    6565.0290  1343624.800000  333397.781272  284438.003360
    6569.6720  1349945.600000  337700.893870  288047.695075
    6574.3340  1355724.500000  341808.718091  291454.754251
    6579.0180  1362000.300000  346019.006965  294901.412914
    6583.7180  1369091.100000  350389.841678  298473.773499
    6588.4380  1374825.900000  354456.058170  301761.323057
    6593.1790  1381727.600000  358824.668015  305272.456928
    6597.9370  1387846.400000  363074.654217  308736.811771
    6602.7150  1394521.300000  367487.564962  312302.472474
    6607.5150  1400950.000000  371977.681649  315953.849459
    6612.3320  1407229.800000  376610.452219  319805.938615
    6617.1680  1414525.500000  381568.511124  323930.251073
    6622.0220  1421038.300000  386420.084916  327951.680041
    6626.8960  1428068.900000  391377.039613  332028.228543
    6631.7920  1433903.600000  396077.062404  335906.515762
    6636.7060  1440269.400000  401023.672169  339986.176151
    6641.6390  1447075.000000  406214.585895  344263.707983
    6646.5910  1453344.800000  411345.271122  348500.281362
    6651.5620  1459835.400000  416425.247880  352663.579038
    6656.5510  1467331.100000  422041.838034  357298.851766
    6661.5640  1473136.800000  427143.611696  361502.618080
    6666.5920  1479619.400000  432422.090046  365819.291179
    6671.6400  1485937.000000  437624.759049  370073.349797
    6676.7100  1492444.800000  443022.633277  374456.881317
    6681.7950  1498268.400000  448282.368302  378741.388623
    6686.9010  1504525.000000  453677.009824  383116.765222
    6692.0300  1510423.500000  458904.604012  387290.305050
    6697.1750  1517805.100000  464719.295209  391992.362856
    6702.3380  1521482.800000  469288.944285  395664.078500
    6707.5220  1523755.400000  472454.395435  398167.242647
    6712.7270  1495498.900000  464427.815006  391148.796980
    6717.9460  1500050.500000  486026.453355  409279.727747
    6723.1900  1544061.000000  489106.001309  411348.685312
    6728.4500  1567231.600000  503325.475674  423251.950663
    6733.7300  1570128.100000  508325.244288  427345.315312
    6739.0300  1562149.600000  506185.448149  425391.363487
    6744.3500  1580039.100000  520323.052014  437049.767281
    6749.6870  1583690.600000  525296.689072  441079.585439
    6755.0440  1600755.100000  536812.963202  450550.529721
    6760.4220  1603292.600000  541533.358653  454326.757213
    6765.8160  1577029.100000  537389.436631  450767.208822
    6771.2360  1618809.600000  556329.833067  466425.283421
    6776.6670  1621276.100000  561897.154586  470893.961660
    6782.1240  1609687.500000  558936.762009  468147.697820
    6787.5980  1565190.000000  561046.338176  469904.461838
    6793.0880  1627077.400000  571162.454705  477683.451760
    6798.6000  1665745.900000  597913.018935  500103.206482
    6804.1330  1667396.300000  603032.195164  504191.212978
    6809.6830  1672941.600000  609997.459879  509794.239845
    6815.2540  1676428.100000  616529.811834  515060.607404
    6820.8420  1684190.500000  624704.796103  521644.599389
    6826.4480  1690341.900000  632311.021138  527776.656492
    6832.0760  1694948.300000  639327.292365  533395.362708
    6837.7260  1701645.600000  647379.426177  539882.898728
    6843.3930  1708668.000000  655580.562877  546448.681127
    6849.0770  1715788.300000  663950.769321  553150.161331
    6854.7840  1722217.600000  672154.847426  559758.724453
    6860.5080  1728309.000000  680332.978662  566289.908455
    6866.2500  1735076.300000  688837.137822  573037.906146

