# XDI/1.0
# Column.1: energy eV
# Column.2: i0
# Column.3: itrans
# Column.4: irefer
# Beamline.name: SSRL 2-3
# Beamline.notes: vert slits = 0.6mm
# Detector.I0: N2 15cm
# Detector.I1: N2 30cm
# Detector.I2: N2 15cm
# Element.edge: K
# Element.symbol: Cr
# Mono.d_spacing: 3.13550
# Mono.name: Si(111)
# Mono.notes: unfocused, detuned 75%, clockwise at E=5990eV
# Sample.formula: Cr2O3
# Sample.name: Cr2O3
# Sample.prep: powder on tape (5 layers)
# Sample.reference: Cr foil
# Sample.temperature: room temp
# Scan.start_time: 1997-04-17 17:30:13
# ///
#    Note: mono d_spacing is nominal!
#     exafs to K16
#     396  E XMU XMUR I0
#-------------
#   energy   i0   itrans  irefer
    5759.9890  27115.900000  9422.498356  1200.699462
    5769.9800  27088.900000  9611.497613  1233.699094
    5780.0070  27042.900000  9812.504031  1265.700209
    5790.0030  26994.900000  10006.499774  1300.700362
    5799.9650  26958.900000  10212.500243  1335.699980
    5810.0340  26892.900000  10407.500116  1368.700448
    5820.0000  26866.900000  10619.500127  1404.700265
    5830.0020  26796.900000  10819.500515  1439.700505
    5839.9710  26744.900000  11022.499589  1475.700218
    5849.9750  26707.900000  11239.500475  1512.700406
    5860.0160  26659.900000  11457.500303  1549.700310
    5870.0220  26592.900000  11661.500528  1588.699668
    5879.9930  26539.900000  11875.500080  1628.700506
    5890.0000  26507.900000  12099.499665  1668.700370
    5899.9710  26444.900000  12315.499895  1706.699900
    5909.9780  26371.900000  12532.499739  1747.699321
    5920.0210  26305.900000  12750.499517  1789.700789
    5930.0260  26233.900000  12967.500523  1829.700455
    5939.9950  26203.900000  13197.500487  1873.700691
    5949.9990  26116.900000  13404.500575  1913.699949
    5959.9650  26053.900000  13613.500295  1952.699881
    5969.9670  25982.900000  13824.500677  1992.699853
    5970.4870  25970.900000  13832.499788  1994.700434
    5971.0060  25945.900000  13828.500291  1994.700076
    5971.5260  25924.900000  13830.499979  1992.699589
    5971.9720  25874.900000  13810.500199  1990.699704
    5972.4920  25711.900000  13742.499986  1981.700312
    5973.0120  25571.900000  13677.500621  1970.700754
    5973.5320  25593.900000  13704.499942  1976.700898
    5973.9780  25744.900000  13791.499847  1989.699156
    5974.4980  25919.900000  13901.499520  2005.699171
    5975.0190  25982.900000  13940.499396  2012.700252
    5975.4640  25981.900000  13955.500641  2013.699831
    5975.9850  25967.900000  13956.500144  2015.699658
    5976.5060  25983.900000  13978.499728  2021.699341
    5977.0260  25972.900000  13979.500223  2021.700496
    5977.4730  25985.900000  13999.499560  2023.700130
    5977.9940  25956.900000  13995.500292  2024.700666
    5978.5150  25970.900000  14016.499627  2027.700070
    5979.0370  25991.900000  14038.499940  2031.699330
    5979.4830  25994.900000  14054.500502  2035.699847
    5980.0050  25997.900000  14067.499904  2038.699624
    5980.5260  25975.900000  14070.499690  2036.699051
    5980.9730  25969.900000  14073.499700  2037.699703
    5981.4950  25961.900000  14080.500242  2039.700286
    5982.0160  25983.900000  14108.499475  2042.699905
    5982.4630  25989.900000  14120.499418  2043.699408
    5982.9860  26000.900000  14135.499846  2046.699208
    5983.5070  25994.900000  14144.500127  2047.699289
    5984.0300  25990.900000  14161.499460  2049.699048
    5984.4770  25988.900000  14164.499850  2049.700785
    5984.9990  26014.900000  14186.500605  2053.699602
    5985.5210  25981.900000  14176.499683  2052.699265
    5985.9700  25900.900000  14139.500254  2046.699135
    5986.4920  25588.900000  13979.499901  2023.700900
    5987.0150  24965.900000  13650.500584  1973.700474
    5987.4630  23801.900000  13016.500338  1879.699285
    5987.9860  22456.900000  12285.500141  1772.699838
    5988.5090  23251.900000  12731.500148  1833.700854
    5989.0320  24382.900000  13357.500562  1917.700989
    5989.4800  24883.900000  13631.500232  1951.699064
    5990.0030  25244.900000  13826.500201  1965.699291
    5990.5260  25449.900000  13924.500490  1948.700838
    5990.9750  25539.900000  13951.500081  1910.700703
    5991.4990  25574.900000  13904.499625  1844.699703
    5992.0210  25619.900000  13818.500265  1788.700347
    5992.4710  25645.900000  13755.499596  1749.700648
    5992.9950  25666.900000  13773.499557  1720.700412
    5993.5180  25683.900000  13832.500562  1701.700315
    5993.9670  25671.900000  13805.500621  1678.700712
    5994.4920  25669.900000  13710.500502  1644.700004
    5995.0160  25682.900000  13586.500654  1613.700035
    5995.4650  25689.900000  13484.500551  1590.699599
    5995.9890  25689.900000  13409.500101  1569.699843
    5996.5140  25673.900000  13397.499856  1564.699999
    5996.9630  25685.900000  13430.499507  1567.699414
    5997.4880  25680.900000  13443.500095  1568.700744
    5998.0120  25688.900000  13443.499652  1567.700180
    5998.5380  25695.900000  13419.499639  1558.699541
    5998.9870  25693.900000  13361.499631  1539.699719
    5999.5130  25671.900000  13223.499454  1499.700630
    6000.0370  25655.900000  12992.499958  1442.699865
    6000.4870  25653.900000  12691.500365  1386.699561
    6001.0130  25605.900000  12192.499818  1303.699502
    6001.4620  25497.900000  11623.499825  1219.699962
    6001.9880  25333.900000  10906.499760  1124.699535
    6002.5130  25248.900000  10227.500200  1035.699652
    6002.9640  25304.900000  9752.499907   976.700380
    6003.4900  25472.900000  9378.500060   925.699919
    6004.0160  25608.900000  9177.501018   895.699723
    6004.4660  25647.900000  9055.503523   874.700005
    6004.9930  25644.900000  8837.497262   844.699549
    6005.5180  25611.900000  8485.502230   802.700258
    6005.9700  25640.900000  8140.501055   763.699977
    6006.4960  25609.900000  7719.503091   717.700445
    6007.0220  25613.900000  7343.497097   676.699600
    6007.4730  25601.900000  7018.500333   640.700332
    6008.0000  25590.900000  6590.497373   596.699776
    6008.5260  25582.900000  6107.497773   547.699861
    6008.9780  25598.900000  5773.499419   514.699719
    6009.5040  25604.900000  5555.501730   489.700029
    6010.0320  25609.900000  5507.501078   481.699885
    6010.9360  25691.664000  5631.256414   483.464969
    6011.8390  25694.951000  5593.518482   476.757889
    6012.8180  25731.768000  5309.296484   457.580862
    6013.7980  25737.107000  5140.584571   455.932185
    6014.7780  25735.975000  5334.380823   484.811957
    6015.7580  25740.367000  5806.688600   536.222260
    6016.8150  25755.285000  6232.501947   577.159771
    6017.7960  25747.730000  6442.833758   594.627255
    6018.9290  25771.701000  6638.672571   607.624024
    6019.9860  25794.197000  6865.024061   620.148412
    6021.1200  25814.219000  7067.879207   633.202796
    6022.1770  25828.768000  7154.252316   639.786283
    6023.3880  25868.842000  7093.133709   635.896944
    6024.5220  25890.441000  6940.520885   627.538552
    6025.7330  25931.566000  6840.425868   620.708315
    6026.8690  25964.219000  6819.835818   616.407750
    6028.1570  25987.396000  6888.756923   617.635162
    6029.3690  26013.100000  7115.192291   632.392051
    6030.5820  26038.330000  7414.130328   652.677389
    6031.8720  26086.086000  7739.585001   677.493086
    6033.1610  26112.367000  8019.547778   700.836984
    6034.5280  26165.174000  8265.021147   720.708365
    6035.8190  26203.508000  8449.010171   738.111261
    6037.1870  26249.367000  8638.507929   753.042113
    6038.5550  26286.752000  8810.507877   764.501024
    6040.0000  26339.664000  8940.029956   772.490120
    6041.3700  26374.102000  9010.058315   776.007995
    6042.8160  26429.064000  9050.593301   780.054347
    6044.2640  26491.553000  9045.640487   781.629784
    6045.7120  26552.568000  9009.192691   782.733864
    6047.2370  26581.109000  8997.266199   787.368250
    6048.7630  26650.176000  9040.846006   793.530545
    6050.2890  26711.768000  9061.930867   800.220645
    6051.8160  26804.887000  9036.529733   805.441441
    6053.4220  26868.531000  8925.646397   804.191182
    6054.9510  26904.701000  8782.262213   800.468602
    6056.5570  27002.398000  8683.395830   801.277201
    6058.2410  27078.621000  8614.032190   801.612884
    6059.8490  27129.369000  8536.190816   800.478078
    6061.5350  27179.643000  8430.847274   794.871569
    6063.2220  27221.443000  8336.021034   787.795302
    6064.9100  27279.770000  8258.701748   780.247893
    6066.6760  27361.621000  8228.899915   774.228939
    6068.3650  27444.000000  8242.606072   766.738530
    6070.1330  27533.904000  8263.813122   760.777089
    6071.9020  27634.332000  8297.538568   752.345148
    6073.7490  27730.289000  8361.779652   754.442119
    6075.5210  27818.770000  8463.518392   766.067474
    6077.3690  27921.777000  8587.777075   784.222045
    6079.2200  28008.313000  8695.540943   806.905562
    6081.1490  28111.371000  8803.823858   830.119308
    6083.0020  28222.957000  8937.605613   854.860249
    6084.9340  28320.068000  9106.902750   882.130451
    6086.8660  28346.705000  9253.712272   902.930944
    6088.8000  28466.867000  9418.038593   919.260120
    6090.8130  28558.557000  9574.866678   923.116910
    6092.8270  28668.771000  9753.199762   918.502559
    6094.8430  28789.512000  9919.050035   913.418754
    6096.8590  28884.779000  10048.413669   905.863885
    6098.8780  29019.572000  10128.279876   896.836685
    6100.9750  29138.891000  10168.663062   890.338762
    6103.0750  29274.736000  10218.551997   894.370546
    6105.1750  29344.105000  10269.955329   908.930791
    6107.2770  29473.002000  10372.869108   935.020016
    6109.4590  29597.426000  10494.291032   968.637725
    6111.6430  29709.373000  10622.225861  1002.785457
    6113.8270  29853.848000  10749.677378  1034.461232
    6116.0130  29999.848000  10861.629127  1057.666763
    6118.2800  30134.375000  10942.087001  1069.400859
    6120.4700  30254.426000  11009.070103  1076.664125
    6122.7400  30408.004000  11108.547569  1082.455275
    6125.0110  30539.107000  11223.547864  1092.776887
    6127.3630  30668.738000  11338.055711  1104.627119
    6129.6390  30809.895000  11449.072297  1122.005495
    6131.9950  30958.576000  11560.601015  1140.914179
    6134.3520  31097.783000  11646.637718  1156.350044
    6136.7900  31238.518000  11710.187444  1166.316142
    6139.1510  31389.775000  11761.244985  1169.810539
    6141.5940  31552.561000  11821.812694  1175.833618
    6144.0380  31682.873000  11870.894347  1179.387872
    6146.4840  31838.711000  11941.483858  1184.469952
    6148.9320  32014.074000  12039.584371  1186.080198
    6151.4620  32161.963000  12167.194822  1191.219272
    6153.9940  32317.377000  12327.315509  1202.888290
    6156.5280  32491.318000  12482.947528  1214.084768
    6159.0640  32645.785000  12567.090738  1217.811689
    6161.6030  32816.777000  12608.743206  1210.066696
    6164.2220  32983.297000  12665.905559  1204.852053
    6166.8440  33124.344000  12758.579922  1204.165722
    6169.4700  33313.914000  12893.763535  1220.007184
    6172.0960  33487.008000  13080.457765  1250.378547
    6174.8060  33666.633000  13335.662373  1294.279058
    6177.5170  33838.781000  13571.379295  1335.708833
    6180.2310  34023.453000  13760.603368  1372.667162
    6182.9480  34195.656000  13896.340311  1399.153650
    6185.6670  34371.379000  14022.587358  1420.169758
    6188.4690  34572.633000  14192.343305  1445.714431
    6191.2730  34768.410000  14371.611194  1466.789232
    6194.0810  34953.715000  14557.388388  1490.391233
    6196.8910  35123.547000  14778.677910  1519.524505
    6199.7030  35304.902000  15050.477543  1553.186646
    6202.5990  35542.781000  15373.784744  1594.374936
    6205.4980  35714.191000  15643.605149  1626.094645
    6208.3990  35893.125000  15854.936025  1655.342396
    6211.3040  36068.582000  16027.775432  1685.118995
    6214.2100  36308.570000  16197.127336  1712.425697
    6217.2020  36484.082000  16330.988793  1733.259008
    6220.1960  36696.117000  16445.359590  1744.622754
    6223.1930  36879.680000  16509.241613  1743.515229
    6226.1930  37054.770000  16572.635783  1740.937721
    6229.1960  37282.387000  16684.539576  1746.887297
    6232.2840  37459.527000  16806.951324  1749.367983
    6235.3750  37614.195000  16976.874692  1751.376597
    6238.4690  37941.387000  17270.311371  1771.913297
    6241.5650  37402.105000  17147.256436  1752.979981
    6244.7480  38075.352000  17580.711150  1795.575070
    6247.8520  38276.121000  17801.676338  1820.699247
    6251.0410  38639.418000  18115.152579  1867.354544
    6254.2330  38831.242000  18332.138630  1910.535805
    6257.4290  39074.590000  18553.637911  1962.246291
    6260.7100  39297.465000  18742.643204  2002.487811
    6263.9130  39545.863000  18918.159615  2035.255344
    6267.2020  39722.789000  19102.189333  2059.555027
    6270.4940  39937.242000  19338.729056  2088.382352
    6273.7900  40141.219000  19596.776954  2123.736658
    6277.1720  40353.727000  19879.337133  2157.622362
    6280.4750  40578.754000  20150.407855  2195.036180
    6283.8650  40801.313000  20423.987385  2229.980993
    6287.2580  41042.391000  20670.078251  2260.452828
    6290.6550  41241.000000  20883.680302  2283.453539
    6294.0560  41475.133000  21111.791913  2315.981896
    6297.5440  41698.793000  21335.413197  2350.042196
    6300.9540  41913.980000  21558.546405  2386.629985
    6304.4500  42147.691000  21766.188998  2417.746245
    6307.9500  42314.930000  21947.345074  2445.391368
    6311.5380  42591.691000  22204.007427  2476.565663
    6315.0470  42845.980000  22505.182702  2511.270060
    6318.5600  43062.797000  22807.867579  2544.503508
    6322.1610  43290.137000  23115.063999  2571.266364
    6325.7660  43474.004000  23419.767958  2596.554698
    6329.3750  43739.398000  23779.984799  2634.375763
    6333.0730  43944.316000  24119.710927  2673.724347
    6336.6910  44179.762000  24451.946175  2714.600538
    6340.3970  44420.730000  24771.694546  2754.006202
    6344.1090  44633.230000  25055.953122  2791.942106
    6347.8260  44859.254000  25311.721768  2834.406590
    6351.5460  45084.801000  25564.998837  2878.398845
    6355.2710  45355.875000  25843.791968  2921.924329
    6359.0850  45536.477000  26094.091179  2961.973879
    6362.8190  45805.602000  26391.898764  3013.553955
    6366.6450  46017.254000  26667.220462  3065.663778
    6370.4730  46293.434000  26966.051871  3115.300875
    6374.3070  46519.137000  27270.392131  3164.469972
    6378.2300  46729.367000  27603.244239  3205.164165
    6382.0750  46955.121000  27963.605837  3255.389313
    6386.0090  47190.406000  28320.479756  3300.144348
    6389.9480  47379.211000  28600.861679  3339.425700
    6393.8930  47640.547000  28908.756039  3386.237850
    6397.8420  47903.406000  29226.160285  3430.579538
    6401.8820  48114.793000  29535.073124  3471.450356
    6405.8430  48374.703000  29906.498915  3521.847859
    6409.8940  48577.141000  30252.434799  3566.774445
    6413.9500  48813.105000  30621.881095  3613.232575
    6418.0130  49078.594000  30997.835279  3669.217310
    6422.0810  49292.609000  31325.302293  3720.734708
    6426.1530  49523.148000  31714.278224  3775.776272
    6430.3180  49789.219000  32118.769364  3831.351353
    6434.4020  49980.809000  32472.767394  3876.450098
    6438.5790  50224.930000  32856.274031  3925.083861
    6442.7610  50466.574000  33219.292819  3972.242577
    6446.9490  50718.746000  33617.823440  4032.930915
    6451.2300  50957.441000  34056.863863  4099.149832
    6455.4300  51177.664000  34512.410599  4172.894780
    6459.7230  51401.414000  34990.471508  4248.167790
    6463.9340  51630.688000  35439.043085  4318.975081
    6468.2390  51847.488000  35867.126731  4382.306509
    6472.5500  52085.816000  36308.713944  4448.169957
    6476.9550  52325.668000  36734.818366  4511.560194
    6481.2780  52581.047000  37155.430258  4575.481466
    6485.6070  52786.949000  37560.553180  4639.930474
    6490.0310  53046.379000  37986.187483  4706.909833
    6494.4610  53256.336000  38388.332928  4771.413458
    6498.8980  53478.820000  38764.988758  4823.450232
    6503.3410  53680.828000  39176.152900  4883.016759
    6507.7900  53925.359000  39647.827302  4953.107462
    6512.3350  54101.422000  40044.012838  5019.735134
    6516.7970  54346.008000  40468.709113  5091.884822
    6521.3550  54554.117000  40854.912923  5157.562486
    6525.9200  54830.754000  41331.633079  5234.776452
    6530.4920  55034.918000  41777.860935  5302.516698
    6535.0690  55328.609000  42308.597523  5381.780765
    6539.6550  55456.824000  42718.849882  5453.579991
    6544.2470  55653.566000  43214.606639  5530.905552
    6548.9360  55870.832000  43742.875554  5601.759557
    6553.5410  56006.625000  44194.656465  5668.144907
    6558.2440  56253.945000  44734.945377  5750.058174
    6562.9540  56432.789000  45246.745949  5829.497210
    6567.6710  56691.160000  45834.060341  5920.467944
    6572.3950  56891.059000  46358.876942  6004.965999
    6577.2180  57093.480000  46861.213288  6087.998198
    6581.9560  57307.430000  47353.052473  6168.552970
    6586.7920  57567.902000  47874.406733  6260.637741
    6591.5460  57789.906000  48380.271827  6344.257822
    6596.3970  57976.430000  48847.639144  6423.396635
    6601.2570  58217.484000  49349.529011  6501.072882
    6606.1250  58435.063000  49853.923703  6592.272986
    6611.0910  58615.168000  50360.825584  6667.004127
    6615.9730  58864.797000  50950.238359  6759.266904
    6620.9550  59140.953000  51577.169787  6861.054373
    6625.8530  59299.637000  52084.603381  6945.370931
    6630.8500  59550.844000  52696.548954  7042.223572
    6635.8550  59697.578000  53201.008347  7133.595251
    6640.8690  59891.836000  53764.973342  7230.500086
    6645.8910  60090.625000  54349.452469  7329.934202
    6650.9190  60338.934000  54996.441163  7440.897528
    6655.9570  60465.773000  55516.941111  7534.392608
    6661.0960  60690.137000  56169.948923  7651.409638
    6666.1500  60895.027000  56765.469125  7744.959177
    6671.3050  60988.441000  57258.500079  7829.041623
    6676.4690  61282.383000  57936.038743  7936.644840
    6681.6420  61407.848000  58461.089991  8027.783035
    6686.8220  61569.844000  59053.651917  8134.452082
    6692.0110  61595.363000  59465.722953  8211.643300
    6697.3030  61438.406000  59709.305215  8261.365383
    6702.5090  59262.977000  57996.398114  8042.620051
    6707.7240  63306.074000  62339.999749  8666.398186
    6713.0420  63444.699000  62941.117002  8772.708877
    6718.3690  63259.848000  63192.737975  8827.557734
    6723.7050  63291.523000  63688.874986  8916.922718
    6729.0490  63369.723000  64225.520172  9019.822381
    6734.4030  63339.449000  64687.675855  9119.242140
    6739.7660  63070.703000  64878.340206  9171.197136
    6745.1370  63835.480000  66137.515899  9371.687243
    6750.6140  62868.785000  65613.202716  9326.697035
    6756.0030  60171.617000  63270.401739  9018.243965
    6761.4980  63754.973000  67557.108960  9656.316867
    6766.9060  64775.855000  69138.328312  9904.916558
    6772.4200  63271.262000  68034.055040  9772.041393
    6777.9430  65184.195000  70617.296794  10166.694286
    6783.4760  65141.656000  71103.039226  10262.885948
    6789.0180  65126.641000  71580.305083  10366.608996
    6794.5690  65126.152000  72104.069777  10468.842753
    6800.2280  64702.191000  72167.352697  10502.620158
    6805.7990  61876.754000  69565.139177  10158.924375
    6811.4770  67553.844000  76507.445951  11197.752279
    6817.0670  66779.461000  76208.260567  11185.114851
    6822.7650  66616.602000  76603.581058  11271.008684
    6828.4730  66661.273000  77230.416041  11391.430584
    6834.1900  66770.461000  77932.758326  11524.375284
    6839.9180  66851.180000  78609.609863  11654.844784
    6845.6560  66960.430000  79332.973391  11790.850483
    6851.4050  67001.195000  79998.849639  11914.394072
    6857.1630  67134.492000  80741.230102  12053.455118
    6863.0310  67150.320000  81391.120998  12176.041244
    6868.8100  67239.664000  82088.531024  12314.166056
    6874.6980  67387.547000  82853.454450  12451.815533
    6880.4980  67513.945000  83607.871231  12602.997332
    6886.4070  67628.867000  84375.815854  12749.713726
    6892.3270  67679.320000  85057.259253  12886.943512
    6898.2580  67767.305000  85806.216007  13031.707828
    6904.2000  67931.805000  86659.689585  13194.008623
    6910.1520  67966.836000  87340.666605  13333.826874
    6916.1150  68110.391000  88157.156052  13497.184201
    6922.0890  68096.477000  88818.155157  13624.069969
    6928.1750  68129.078000  89517.667832  13769.472605
    6934.1710  68289.219000  90350.685700  13944.422484
    6940.2790  68364.875000  91123.221167  14105.879120
    6946.2960  68416.063000  91893.255420  14263.882403
    6952.4280  68457.773000  92646.817518  14416.416654
    6958.5690  68545.016000  93463.874936  14582.468176
    6964.6200  68677.773000  94337.446430  14755.047236
    6970.7850  68828.070000  95261.529940  14945.168284
    6976.9600  68829.883000  95957.126866  15089.807208
    6983.1470  68936.227000  96812.230151  15257.975208
    6989.3470  68926.094000  97516.844688  15407.680658
    6995.6610  68978.484000  98307.972722  15570.905329
    7001.8820  69075.406000  99127.603900  15734.676145
    7008.1160  69129.852000  99893.752790  15897.965564
    7014.4650  69253.820000  100818.402756  16096.774431
    7020.7220  69364.320000  101688.570703  16272.115124
    7027.0960  69331.344000  102363.253771  16423.000114
    7033.3760  69369.891000  103139.436598  16596.400361
    7039.7740  69520.969000  104098.130763  16790.328218
    7046.1830  69548.570000  104908.344289  16970.797238
    7052.6040  69553.695000  105687.057968  17142.786008
    7059.0390  69551.344000  106441.287538  17297.302118
    7065.4840  69633.523000  107341.034433  17494.350560
    7071.9420  69602.227000  108074.279510  17658.932817
    7078.4130  69666.461000  108948.044338  17853.027669
    7084.8960  69671.219000  109743.311348  18027.675514
    7091.3910  69718.500000  110611.095584  18224.838307
    7097.8990  69756.305000  111455.388855  18410.523139
    7104.5260  69785.641000  112285.189789  18600.751298
    7111.0590  69795.500000  113100.503822  18780.495122

