# XDI/1.0
# Column.1: energy eV
# Column.2: i0
# Column.3: itrans
# Column.4: irefer
# Beamline.name: SSRL 2-3
# Beamline.notes: vert slits = 0.6mm
# Detector.I0: N2 15cm
# Detector.I1: N2 30cm
# Detector.I2: N2 15cm
# Element.edge: K
# Element.symbol: Cr
# Mono.d_spacing: 3.13550
# Mono.name: Si(111)
# Mono.notes: unfocused, detuned 75%, clockwise at E=5990eV
# Sample.formula: Cr2O3
# Sample.name: Cr2O3
# Sample.prep: powder on tape (4 layers)
# Sample.reference: Cr foil
# Sample.temperature: 100K
# Scan.start_time: 1997-04-18 21:40:35
# ///
#    Note: mono d_spacing is nominal!
#     exafs to K16
#     396  E XMU XMUR I0
#-------------
#   energy   i0   itrans  irefer
    5759.9890  210048.800000  10935.702384  1395.300612
    5769.9800  210031.800000  11148.700542  1432.300579
    5780.0070  209821.800000  11360.695091  1469.299269
    5790.0030  209654.800000  11572.705700  1504.301045
    5799.9650  209474.800000  11784.704310  1543.300717
    5810.0340  209388.800000  12008.705089  1583.300846
    5820.0000  209239.800000  12224.705715  1620.301046
    5830.0020  209024.800000  12454.698051  1660.299330
    5839.9710  208880.800000  12680.694951  1700.300082
    5849.9750  208642.800000  12903.694928  1742.299337
    5860.0160  208692.800000  13145.694811  1783.299525
    5870.0220  208260.800000  13365.705568  1826.300143
    5879.9930  208015.800000  13593.694403  1868.298341
    5890.0000  207810.800000  13833.705618  1911.300787
    5899.9710  207599.800000  14074.704623  1955.301082
    5909.9780  207383.800000  14313.700891  2001.300427
    5920.0210  206826.800000  14530.701096  2043.299142
    5930.0260  206424.800000  14752.700952  2086.300040
    5939.9950  206424.800000  15009.692835  2134.298842
    5949.9990  206006.800000  15232.696117  2177.299131
    5959.9650  205722.800000  15461.694329  2222.299858
    5969.9670  205410.800000  15672.692652  2262.299732
    5970.4870  205234.800000  15679.696981  2263.299467
    5971.0060  204948.800000  15660.696906  2262.300446
    5971.5260  203830.800000  15583.695975  2250.299319
    5971.9720  202588.800000  15500.701934  2239.299982
    5972.4920  202097.800000  15473.698918  2236.300054
    5973.0120  203288.800000  15568.702174  2252.299351
    5973.5320  204816.800000  15701.698968  2271.299015
    5973.9780  205554.800000  15771.707417  2281.300477
    5974.4980  205696.800000  15789.706492  2282.301218
    5975.0190  205870.800000  15818.700048  2287.299325
    5975.4640  205735.800000  15814.698958  2288.299171
    5975.9850  205777.800000  15827.705955  2290.300303
    5976.5060  205892.800000  15847.704209  2293.299580
    5977.0260  205746.800000  15847.698529  2295.299386
    5977.4730  205829.800000  15860.704160  2295.300137
    5977.9940  205714.800000  15861.705475  2297.300513
    5978.5150  206011.800000  15892.693077  2303.299013
    5979.0370  205886.800000  15895.697946  2303.299138
    5979.4830  205679.800000  15893.696603  2302.299925
    5980.0050  205811.800000  15909.702750  2305.300782
    5980.5260  205930.800000  15924.697246  2306.299265
    5980.9730  206034.800000  15939.703729  2309.301474
    5981.4950  205792.800000  15926.698267  2308.298879
    5982.0160  206150.800000  15965.704290  2314.301559
    5982.4630  206247.800000  15979.703065  2317.301492
    5982.9860  206156.800000  15980.704797  2315.301796
    5983.5070  206128.800000  15983.696214  2317.298844
    5984.0300  206176.800000  15993.702534  2316.299926
    5984.4770  206044.800000  15988.706366  2317.299782
    5984.9990  205630.800000  15954.697944  2310.299865
    5985.5210  203967.800000  15831.698086  2292.298757
    5985.9700  200258.800000  15543.701837  2249.301065
    5986.4920  190870.800000  14816.697575  2143.300133
    5987.0150  178976.800000  13882.696222  2007.299304
    5987.4630  179931.800000  13962.705611  2017.299811
    5987.9860  190156.800000  14757.700214  2126.299181
    5988.5090  196466.800000  15232.700418  2185.300746
    5989.0320  200224.800000  15503.700468  2209.300027
    5989.4800  201900.800000  15598.698600  2201.300865
    5990.0030  202882.800000  15610.698374  2154.299198
    5990.5260  203314.800000  15499.697643  2074.299522
    5990.9750  203699.800000  15319.696316  1999.300444
    5991.4990  203975.800000  15072.702997  1925.301077
    5992.0210  203921.800000  14999.705792  1881.301053
    5992.4710  204185.800000  15091.706638  1867.301543
    5992.9950  204436.800000  15116.696800  1844.300147
    5993.5180  203933.800000  14856.707271  1791.301466
    5993.9670  203854.800000  14596.707298  1740.300807
    5994.4920  204204.800000  14290.706228  1690.300649
    5995.0160  204253.800000  14055.704649  1651.300795
    5995.4650  204241.800000  13986.695916  1636.299985
    5995.9890  204150.800000  14016.706456  1639.301008
    5996.5140  204062.800000  14064.695463  1645.300084
    5996.9630  204123.800000  14059.701736  1643.300423
    5997.4880  204347.800000  14018.704086  1634.299781
    5998.0120  204129.800000  13896.695333  1607.298896
    5998.5380  204182.800000  13677.698655  1562.299339
    5998.9870  204199.800000  13331.703578  1499.300890
    5999.5130  203955.800000  12676.695448  1397.299302
    6000.0370  203845.800000  11779.701351  1270.299660
    6000.4870  203449.800000  10814.699693  1146.299917
    6001.0130  202218.800000  9489.702653   986.299991
    6001.4620  201038.800000  8417.702462   861.300282
    6001.9880  200931.800000  7393.701928   745.300003
    6002.5130  202309.800000  6642.697865   661.299914
    6002.9640  203521.800000  6280.698023   620.300106
    6003.4900  204197.800000  6073.700956   591.299946
    6004.0160  204235.800000  5838.700230   564.300261
    6004.4660  204124.800000  5529.700039   528.299760
    6004.9930  203905.800000  5038.700051   480.300237
    6005.5180  204128.800000  4506.699949   425.299849
    6005.9700  203903.800000  4110.699933   387.300002
    6006.4960  203894.800000  3723.701404   347.300171
    6007.0220  204020.800000  3290.698820   305.299795
    6007.4730  204018.800000  2884.700687   265.300044
    6008.0000  203932.800000  2466.700747   225.299991
    6008.5260  203654.800000  2211.699896   200.300088
    6008.9780  203735.800000  2147.699043   193.299990
    6009.5040  203886.800000  2175.701057   193.300161
    6010.0320  203759.800000  2242.700789   198.300018
    6010.9360  203606.560000  2254.457808   198.064113
    6011.8390  203649.840000  2069.727691   184.358149
    6012.8180  203868.640000  1910.511228   175.181073
    6013.7980  203813.950000  1980.809437   184.534022
    6014.7780  204060.800000  2321.619468   219.414858
    6015.7580  204043.160000  2662.944699   252.826079
    6016.8150  204384.030000  2889.783900   272.765105
    6017.7960  204321.420000  3020.134425   284.233937
    6018.9290  204342.340000  3229.000752   299.232841
    6019.9860  204496.780000  3424.379302   312.759808
    6021.1200  204614.730000  3543.272889   321.817020
    6022.1770  205136.200000  3515.680653   321.402242
    6023.3880  205187.200000  3343.598871   307.518120
    6024.5220  205288.720000  3195.032879   295.162088
    6025.7330  205476.750000  3132.980816   291.335105
    6026.8690  206001.300000  3145.442184   290.038235
    6028.1570  206194.370000  3308.415148   301.269902
    6029.3690  206323.970000  3584.903670   324.030900
    6030.5820  206499.080000  3892.906135   350.321126
    6031.8720  206775.700000  4197.418237   376.140939
    6033.1610  207256.860000  4460.451052   397.490157
    6034.5280  207623.530000  4680.989353   416.366868
    6035.8190  207778.720000  4853.046574   429.773767
    6037.1870  208149.420000  5040.615447   447.710790
    6038.5550  208716.660000  5192.699197   458.175784
    6040.0000  209361.410000  5276.299465   463.171443
    6041.3700  209513.670000  5308.408049   465.695165
    6042.8160  209693.450000  5297.032205   465.748124
    6044.2640  210478.770000  5243.167461   463.330708
    6045.7120  210933.590000  5198.818273   460.441874
    6047.2370  211579.940000  5213.987374   464.083352
    6048.7630  211864.800000  5228.661591   466.251699
    6050.2890  212446.190000  5194.855104   466.951787
    6051.8160  212934.090000  5084.560938   463.181025
    6053.4220  213736.520000  4908.778052   451.937692
    6054.9510  214277.450000  4740.514483   441.225000
    6056.5570  214808.920000  4626.760230   435.040951
    6058.2410  215367.910000  4530.520235   430.385816
    6059.8490  215891.410000  4402.794926   421.260256
    6061.5350  216284.420000  4266.578853   410.663679
    6063.2220  216826.970000  4151.881738   400.597003
    6064.9100  217318.030000  4055.694150   389.058663
    6066.6760  218002.610000  4017.022816   382.049933
    6068.3650  218726.700000  4015.865960   377.570114
    6070.1330  219466.330000  4006.222697   373.621071
    6071.9020  220492.470000  4016.089005   370.199046
    6073.7490  221130.120000  4068.471217   374.306726
    6075.5210  221970.300000  4158.367582   383.943677
    6077.3690  222581.000000  4254.780100   396.111350
    6079.2200  223443.220000  4335.701123   410.807038
    6081.1490  224101.950000  4401.137729   422.030827
    6083.0020  225039.200000  4514.089969   439.786283
    6084.9340  225953.980000  4663.551817   459.069048
    6086.8660  226812.280000  4807.531328   473.881360
    6088.8000  227800.090000  4940.020328   485.223071
    6090.8130  228520.420000  5073.026447   489.094074
    6092.8270  229596.280000  5225.546900   491.494005
    6094.8430  230791.660000  5371.576274   495.422869
    6096.8590  231535.550000  5452.124916   491.881928
    6098.8780  232564.950000  5468.183848   484.870003
    6100.9750  233532.890000  5455.754503   480.387083
    6103.0750  234708.340000  5466.839366   484.432894
    6105.1750  235565.310000  5504.440884   496.008210
    6107.2770  236634.810000  5587.556472   514.112105
    6109.4590  237737.810000  5691.184665   536.746388
    6111.6430  238797.340000  5795.323171   557.908807
    6113.8270  240109.390000  5886.976930   576.601214
    6116.0130  241228.970000  5943.145659   587.821802
    6118.2800  242263.050000  5961.827844   589.572913
    6120.4700  243370.660000  5983.021040   592.852664
    6122.7400  244359.780000  6043.731671   596.662082
    6125.0110  245560.440000  6125.951605   602.999512
    6127.3630  246643.590000  6198.692230   612.868024
    6129.6390  248065.280000  6272.938702   625.264160
    6131.9950  249323.480000  6335.705480   634.190542
    6134.3520  250603.220000  6364.978738   640.644801
    6136.7900  251952.450000  6347.768788   640.629097
    6139.1510  253068.220000  6332.075697   639.143102
    6141.5940  254570.500000  6327.889773   637.185034
    6144.0380  255650.310000  6331.223694   636.756813
    6146.4840  256972.620000  6356.065426   637.857447
    6148.9320  258537.470000  6415.427491   640.488338
    6151.4620  259843.830000  6517.297504   645.647750
    6153.9940  261221.720000  6652.685107   656.335983
    6156.5280  262389.120000  6744.582519   663.553758
    6159.0640  263894.030000  6753.997968   661.302186
    6161.6030  265217.470000  6712.920693   651.578193
    6164.2220  266638.440000  6700.362192   643.382788
    6166.8440  268032.910000  6731.316704   645.718113
    6169.4700  269416.910000  6814.781692   655.581947
    6172.0960  271094.440000  6977.762086   677.974398
    6174.8060  272407.470000  7195.256553   707.896768
    6177.5170  273907.030000  7399.265527   735.348856
    6180.2310  275531.090000  7510.788635   755.329253
    6182.9480  277096.690000  7559.820955   766.838935
    6185.6670  278468.810000  7606.370047   778.877935
    6188.4690  280043.440000  7700.434332   790.446529
    6191.2730  281823.590000  7811.010242   804.543943
    6194.0810  283461.280000  7937.104493   819.170149
    6196.8910  284970.470000  8123.706868   841.327364
    6199.7030  286899.190000  8396.818631   872.011994
    6202.5990  288532.410000  8677.456184   903.227716
    6205.4980  290031.160000  8913.592559   931.970018
    6208.3990  291423.440000  9061.252267   951.243056
    6211.3040  293297.220000  9159.425859   966.044381
    6214.2100  294665.530000  9217.113476   978.376138
    6217.2020  296326.370000  9272.309154   988.236189
    6220.1960  298008.720000  9270.021954   987.624956
    6223.1930  299669.590000  9219.248264   979.544610
    6226.1930  301447.970000  9191.980607   969.991889
    6229.1960  303103.870000  9187.239883   963.970634
    6232.2840  304967.310000  9243.000760   961.476256
    6235.3750  304125.250000  9292.286274   963.511961
    6238.4690  309360.720000  9572.074706   988.075640
    6241.5650  302930.720000  9467.388774   972.171677
    6244.7480  310724.220000  9788.201838  1004.793217
    6247.8520  313919.250000  9989.542414  1028.945804
    6251.0410  315814.780000  10171.390257  1057.628251
    6254.2330  317670.840000  10338.747729  1089.838753
    6257.4290  319862.440000  10479.626389  1117.579324
    6260.7100  321736.530000  10556.016490  1135.848536
    6263.9130  323572.160000  10592.912542  1145.645403
    6267.2020  325478.310000  10695.336694  1160.974598
    6270.4940  327444.970000  10858.259237  1181.829912
    6273.7900  329282.160000  11052.702988  1205.216251
    6277.1720  331195.840000  11265.667901  1232.133059
    6280.4750  333339.090000  11482.133978  1258.576424
    6283.8650  335288.810000  11669.122840  1280.552057
    6287.2580  337191.090000  11827.612052  1298.052160
    6290.6550  338747.840000  11939.628526  1312.085683
    6294.0560  340596.160000  12047.154536  1327.646059
    6297.5440  342610.970000  12180.186878  1349.736793
    6300.9540  344736.310000  12313.741156  1370.356337
    6304.4500  347004.190000  12394.810226  1385.506608
    6307.9500  348803.560000  12452.394060  1392.185617
    6311.5380  350572.440000  12566.485149  1407.392021
    6315.0470  352530.870000  12760.088235  1425.128796
    6318.5600  354541.810000  12997.204291  1452.394073
    6322.1610  356749.250000  13225.835533  1475.187579
    6325.7660  358853.220000  13462.990104  1500.513596
    6329.3750  360700.720000  13746.655856  1530.367012
    6333.0730  362935.750000  14054.825958  1565.749810
    6336.6910  365279.280000  14308.506373  1595.659630
    6340.3970  367270.310000  14526.711345  1622.102450
    6344.1090  369507.910000  14719.426434  1647.071969
    6347.8260  371383.000000  14828.661193  1668.571507
    6351.5460  373601.590000  14947.393880  1688.598614
    6355.2710  375707.720000  15067.656617  1711.158285
    6359.0850  377562.370000  15207.424668  1732.244166
    6362.8190  379556.560000  15363.715975  1763.860061
    6366.6450  381583.250000  15515.508072  1790.006130
    6370.4730  383484.440000  15665.816511  1816.680703
    6374.3070  385600.190000  15855.636551  1843.883703
    6378.2300  387794.440000  16117.979780  1874.618937
    6382.0750  390031.190000  16416.824782  1916.879705
    6386.0090  392037.500000  16664.196545  1946.672488
    6389.9480  394236.280000  16824.067070  1972.990526
    6393.8930  396723.620000  16968.469167  1994.842035
    6397.8420  398947.470000  17119.373135  2015.220773
    6401.8820  401067.840000  17304.794296  2040.130120
    6405.8430  403475.720000  17558.730883  2074.566700
    6409.8940  405330.120000  17801.163960  2105.531325
    6413.9500  407106.030000  18008.136211  2133.030349
    6418.0130  409399.500000  18226.607043  2166.054808
    6422.0810  411622.440000  18446.589850  2201.606941
    6426.1530  413578.940000  18699.100164  2233.691065
    6430.3180  415728.940000  18981.113554  2267.306269
    6434.4020  418003.470000  19226.638396  2299.447172
    6438.5790  420686.500000  19470.683045  2331.117813
    6442.7610  422387.060000  19641.233323  2352.317700
    6446.9490  424802.120000  19885.293939  2389.046806
    6451.2300  427310.750000  20206.887271  2439.308263
    6455.4300  429054.840000  20577.983516  2498.093255
    6459.7230  431167.500000  20986.589651  2559.409699
    6463.9340  433737.660000  21338.711859  2611.257435
    6468.2390  436235.340000  21680.361881  2661.635726
    6472.5500  438396.530000  21980.502721  2700.537482
    6476.9550  440541.250000  22253.161415  2741.971219
    6481.2780  442923.500000  22514.331656  2783.934094
    6485.6070  445161.250000  22775.025803  2824.427181
    6490.0310  447284.530000  23028.231611  2863.446372
    6494.4610  449870.310000  23264.959424  2902.999002
    6498.8980  452237.620000  23493.193706  2931.079396
    6503.3410  454049.470000  23707.943408  2957.688813
    6507.7900  455854.810000  23991.206316  3001.827770
    6512.3350  458262.690000  24332.978706  3056.497274
    6516.7970  460441.090000  24551.253729  3090.691713
    6521.3550  462881.000000  24736.057615  3129.417865
    6525.9200  465325.440000  24998.380225  3172.674845
    6530.4920  467722.370000  25327.199401  3229.459848
    6535.0690  469669.840000  25640.547361  3276.772617
    6539.6550  471529.840000  25966.399815  3322.615877
    6544.2470  473363.340000  26334.747221  3376.984847
    6548.9360  475398.370000  26728.652737  3432.888813
    6553.5410  477458.940000  27092.045659  3486.318006
    6558.2440  479809.000000  27478.945906  3543.277365
    6562.9540  481764.590000  27908.368560  3603.766658
    6567.6710  483841.690000  28360.313799  3668.785814
    6572.3950  485861.310000  28778.748424  3730.331907
    6577.2180  488144.470000  29158.731567  3788.410004
    6581.9560  490703.120000  29481.186123  3842.012437
    6586.7920  492871.310000  29771.188753  3893.148080
    6591.5460  495197.030000  30083.676743  3947.812878
    6596.3970  497467.250000  30336.715914  3995.008574
    6601.2570  499516.000000  30573.225113  4037.725868
    6606.1250  502060.250000  30860.286551  4083.980528
    6611.0910  504425.030000  31208.834949  4139.761702
    6615.9730  506372.340000  31628.899648  4207.069180
    6620.9550  508391.190000  32079.500431  4281.910165
    6625.8530  510919.500000  32517.585768  4348.278604
    6630.8500  513633.370000  32936.212060  4411.177775
    6635.8550  516385.750000  33394.327950  4487.604604
    6640.8690  517699.660000  33756.981904  4550.559840
    6645.8910  519906.090000  34208.125348  4621.046521
    6650.9190  522049.030000  34659.799887  4695.062904
    6655.9570  523772.470000  35075.973221  4761.602982
    6661.0960  525452.440000  35526.669997  4838.673834
    6666.1500  527137.940000  35922.874311  4902.274397
    6671.3050  529172.000000  36325.592514  4966.406403
    6676.4690  531276.500000  36716.843523  5035.070869
    6681.6420  533199.560000  37124.597789  5105.261952
    6686.8220  535037.120000  37540.867053  5173.979531
    6692.0110  535782.250000  37817.646357  5221.229072
    6697.3030  535634.870000  38060.907909  5273.001348
    6702.5090  510926.000000  36482.721525  5067.308281
    6707.7240  555402.620000  39996.033719  5560.145585
    6713.0420  551403.810000  39990.879205  5574.515503
    6718.3690  551746.500000  40291.224934  5634.405844
    6723.7050  551979.750000  40615.077344  5685.831399
    6729.0490  553024.440000  41008.452166  5758.783162
    6734.4030  553475.690000  41382.323898  5825.261148
    6739.7660  560431.500000  42239.720513  5955.272864
    6745.1370  558820.750000  42428.646531  6005.818563
    6750.6140  546899.560000  41855.079596  5940.885319
    6756.0030  560057.940000  43215.025301  6151.489470
    6761.4980  554797.750000  43113.476710  6148.613646
    6766.9060  568581.120000  44599.426237  6381.269089
    6772.4200  558991.000000  44246.902670  6351.457873
    6777.9430  573467.440000  45733.915712  6579.173705
    6783.4760  574566.370000  46155.383998  6656.412110
    6789.0180  575326.810000  46544.425545  6729.186398
    6794.5690  575993.750000  46919.943047  6810.488225
    6800.2280  573664.250000  47063.007775  6850.326360
    6805.7990  544448.250000  45372.577219  6619.685733
    6811.4770  593099.810000  49495.645623  7237.578568
    6817.0670  591339.870000  49791.233194  7294.998149
    6822.7650  591779.440000  50276.360572  7387.947808
    6828.4730  593241.500000  50808.952398  7483.424944
    6834.1900  594603.120000  51327.063043  7576.430343
    6839.9180  596183.250000  51873.708728  7678.967410
    6845.6560  597792.870000  52476.860639  7789.029916
    6851.4050  599721.000000  53072.534165  7896.625743
    6857.1630  601519.690000  53641.727842  8007.753579
    6863.0310  602871.940000  54223.413724  8109.407461
    6868.8100  604515.620000  54797.660929  8219.591478
    6874.6980  606166.870000  55326.351344  8317.296908
    6880.4980  608306.620000  55888.635785  8425.544170
    6886.4070  608895.940000  56342.344941  8519.310266
    6892.3270  610528.690000  56905.630282  8622.613998
    6898.2580  611673.060000  57434.428552  8732.449582
    6904.2000  613757.870000  58076.697161  8853.797844
    6910.1520  615017.250000  58689.528230  8969.691797
    6916.1150  616618.120000  59326.845016  9093.109255
    6922.0890  617488.500000  59886.640180  9204.048530
    6928.1750  619018.440000  60529.997114  9334.517255
    6934.1710  620549.870000  61129.891680  9452.535119
    6940.2790  622346.810000  61811.257601  9587.062274
    6946.2960  623720.310000  62461.167693  9707.133686
    6952.4280  625263.310000  63150.505721  9847.709174
    6958.5690  626439.810000  63823.451188  9979.836389
    6964.6200  628124.810000  64527.848400  10106.480874
    6970.7850  629990.370000  65247.813336  10251.669123
    6976.9600  632004.440000  65993.313048  10399.382397
    6983.1470  633037.060000  66632.268154  10533.608627
    6989.3470  634264.190000  67247.750702  10655.386843
    6995.6610  635729.810000  67924.693708  10788.671474
    7001.8820  637669.940000  68646.271160  10927.502910
    7008.1160  638884.620000  69298.265339  11055.851935
    7014.4650  640133.810000  69907.800114  11185.734182
    7020.7220  641801.500000  70579.876316  11316.151776
    7027.0960  642450.750000  71174.396935  11441.088844
    7033.3760  643462.500000  71810.503258  11575.568929
    7039.7740  645759.750000  72648.121337  11734.574042
    7046.1830  647163.560000  73356.202407  11877.098619
    7052.6040  648455.870000  74060.842557  12020.156537
    7059.0390  649529.690000  74789.952205  12166.746666
    7065.4840  651001.000000  75567.566630  12325.856104
    7071.9420  652608.870000  76384.742891  12487.497901
    7078.4130  654270.250000  77217.451903  12653.685194
    7084.8960  654707.190000  77880.616579  12802.392884
    7091.3910  656213.620000  78721.347968  12969.628776
    7097.8990  656889.560000  79370.511449  13118.387958
    7104.5260  658319.000000  80088.287209  13269.678444
    7111.0590  659603.000000  80837.513913  13423.503176

