# XDI/1.0
# Column.1: energy eV
# Column.2: i0
# Column.3: itrans
# Column.4: irefer
# Beamline.name: SSRL 2-3
# Beamline.notes: vert slits = 0.6mm
# Detector.I0: N2 15cm
# Detector.I1: N2 30cm
# Detector.I2: N2 15cm
# Element.edge: K
# Element.symbol: Cr
# Mono.d_spacing: 3.13550
# Mono.name: Si(111)
# Mono.notes: unfocused, detuned 75%, clockwise at E=5990eV
# Sample.formula: Cr2O3
# Sample.name: Cr2O3
# Sample.prep: powder on tape (4 layers)
# Sample.reference: Cr foil
# Sample.temperature: 15K
# Scan.start_time: 1997-04-18 10:20:18
# ///
#    Note: mono d_spacing is nominal!
#     exafs to K16
#     396  E XMU XMUR I0
#-------------
#   energy   i0   itrans  irefer
    5759.9890  213082.800000  17480.707121  2218.301521
    5769.9800  212145.800000  17693.702302  2259.299420
    5780.0070  211319.800000  17926.707247  2301.301025
    5790.0030  210408.800000  18154.696818  2346.299263
    5799.9650  209518.800000  18379.694084  2390.299024
    5810.0340  208724.800000  18620.695769  2436.300348
    5820.0000  207935.800000  18860.699738  2482.299574
    5830.0020  207158.800000  19099.700397  2531.299099
    5839.9710  206403.800000  19345.705257  2577.300271
    5849.9750  205647.800000  19585.705655  2626.299961
    5860.0160  204752.800000  19818.709145  2672.302333
    5870.0220  203846.800000  20057.692206  2721.300065
    5879.9930  203126.800000  20305.695528  2772.300316
    5890.0000  202028.800000  20518.691711  2818.298296
    5899.9710  201046.800000  20746.710765  2865.301891
    5909.9780  200322.800000  20997.703308  2919.300595
    5920.0210  199384.800000  21224.700597  2969.301161
    5930.0260  198466.800000  21459.701591  3016.299750
    5939.9950  197607.800000  21688.697194  3067.298658
    5949.9990  196827.800000  21922.691343  3115.299312
    5959.9650  196097.800000  22174.711420  3169.302444
    5969.9670  194935.800000  22366.700625  3212.300264
    5970.4870  194599.800000  22337.706880  3212.299841
    5971.0060  194123.800000  22302.707862  3205.301315
    5971.5260  193791.800000  22291.699443  3204.299132
    5971.9720  192730.800000  22190.702539  3190.301405
    5972.4920  191263.800000  22030.693210  3169.299631
    5973.0120  191118.800000  21984.710275  3161.302810
    5973.5320  192752.800000  22190.705697  3194.301813
    5973.9780  193986.800000  22365.690611  3218.299503
    5974.4980  194176.800000  22415.710716  3225.300371
    5975.0190  194135.800000  22431.695001  3226.299821
    5975.4640  194163.800000  22449.697343  3232.300564
    5975.9850  194062.800000  22440.712198  3230.302603
    5976.5060  193854.800000  22437.696530  3233.300445
    5977.0260  193756.800000  22437.704141  3233.301542
    5977.4730  193735.800000  22450.690596  3234.299528
    5977.9940  193777.800000  22484.701437  3239.299627
    5978.5150  193420.800000  22455.692070  3237.298308
    5979.0370  193271.800000  22452.691336  3237.299480
    5979.4830  193264.800000  22458.704544  3238.299250
    5980.0050  193442.800000  22500.709938  3243.301724
    5980.5260  193150.800000  22481.690693  3238.299126
    5980.9730  193111.800000  22482.703850  3238.299336
    5981.4950  193197.800000  22510.695111  3244.299754
    5982.0160  193239.800000  22540.707679  3248.300397
    5982.4630  192798.800000  22495.699511  3243.299442
    5982.9860  192880.800000  22528.707425  3248.301946
    5983.5070  192918.800000  22544.708340  3248.301924
    5984.0300  192885.800000  22551.696680  3251.298009
    5984.4770  192638.800000  22541.700127  3248.300488
    5984.9990  192670.800000  22559.697843  3250.299133
    5985.5210  192595.800000  22573.704073  3252.300826
    5985.9700  190979.800000  22418.705185  3229.300865
    5986.4920  186780.800000  21951.703326  3160.299295
    5987.0150  178280.800000  20926.699577  3010.300282
    5987.4630  169031.800000  19826.706914  2851.299522
    5987.9860  169918.800000  19934.694898  2863.299628
    5988.5090  177907.800000  20900.695555  2994.299872
    5989.0320  182982.800000  21554.705801  3075.302158
    5989.4800  185678.800000  21883.705072  3104.300162
    5990.0030  187312.800000  22071.693417  3093.298343
    5990.5260  188197.800000  22177.705719  3035.300822
    5990.9750  188531.800000  22209.690284  2963.297572
    5991.4990  188819.800000  22220.696316  2883.298990
    5992.0210  188882.800000  22202.695866  2817.299260
    5992.4710  188665.800000  22170.691100  2771.299090
    5992.9950  189027.800000  22241.704201  2738.299464
    5993.5180  189153.800000  22268.707475  2700.301520
    5993.9670  188874.800000  22221.701617  2664.300007
    5994.4920  188826.800000  22175.702173  2629.301424
    5995.0160  188980.800000  22164.710846  2602.301960
    5995.4650  188766.800000  22120.690467  2583.299327
    5995.9890  188685.800000  22116.704834  2573.300195
    5996.5140  188635.800000  22132.700420  2571.298880
    5996.9630  188710.800000  22158.710825  2574.300082
    5997.4880  188576.800000  22154.693074  2573.298016
    5998.0120  188388.800000  22137.697230  2562.299026
    5998.5380  188288.800000  22119.707524  2540.301956
    5998.9870  188269.800000  22093.711940  2505.301384
    5999.5130  188181.800000  22024.699251  2450.300124
    6000.0370  187731.800000  21873.707582  2381.301885
    6000.4870  187465.800000  21724.690587  2322.298502
    6001.0130  186916.800000  21445.709414  2244.299842
    6001.4620  185667.800000  21086.711500  2169.301129
    6001.9880  184491.800000  20708.702407  2093.300523
    6002.5130  185161.800000  20615.702391  2049.299520
    6002.9640  186607.800000  20625.704479  2025.300507
    6003.4900  187403.800000  20562.697782  1995.300463
    6004.0160  187633.800000  20518.710782  1967.300288
    6004.4660  187647.800000  20472.710446  1944.301529
    6004.9930  187635.800000  20359.708004  1916.301162
    6005.5180  187366.800000  20183.696871  1880.299726
    6005.9700  187164.800000  20027.703942  1852.300745
    6006.4960  187210.800000  19876.701256  1820.299876
    6007.0220  187264.800000  19745.698260  1791.300080
    6007.4730  186938.800000  19563.709435  1759.300507
    6008.0000  186788.800000  19348.706444  1722.299931
    6008.5260  186981.800000  19182.708723  1691.301390
    6008.9780  186865.800000  19080.706854  1669.300560
    6009.5040  186578.800000  19022.693667  1648.298708
    6010.0320  186461.800000  19036.694239  1632.298905
    6010.9360  186561.560000  19108.461837  1616.065134
    6011.8390  186468.840000  19069.727830  1616.357478
    6012.8180  186292.640000  18931.510777  1634.181015
    6013.7980  186295.950000  18911.808933  1678.533572
    6014.7780  186325.800000  19072.619153  1730.414118
    6015.7580  186191.160000  19297.950294  1771.826416
    6016.8150  186174.030000  19474.791418  1792.766364
    6017.7960  186108.420000  19575.140260  1792.234933
    6018.9290  186332.340000  19715.001699  1782.232610
    6019.9860  186378.780000  19843.372148  1774.759737
    6021.1200  186252.730000  19929.270190  1769.815873
    6022.1770  186221.200000  19968.683361  1771.401807
    6023.3880  186561.200000  19976.594942  1783.517139
    6024.5220  186741.720000  19950.026780  1795.160595
    6025.7330  186792.750000  19937.985144  1798.335857
    6026.8690  186759.300000  19945.441520  1790.037594
    6028.1570  186975.370000  20039.411248  1782.270114
    6029.3690  187142.970000  20196.894808  1780.029381
    6030.5820  187229.080000  20357.896965  1782.320013
    6031.8720  187171.700000  20522.428831  1789.142362
    6033.1610  187594.860000  20712.443139  1797.488904
    6034.5280  187803.530000  20850.988625  1810.366595
    6035.8190  188199.720000  20986.045973  1822.774406
    6037.1870  188081.420000  21075.620674  1828.712110
    6038.5550  188420.660000  21205.700063  1834.175417
    6040.0000  188650.410000  21300.288554  1832.171032
    6041.3700  189215.670000  21417.417130  1838.695726
    6042.8160  189427.450000  21487.021498  1844.746928
    6044.2640  189566.770000  21522.164493  1855.331360
    6045.7120  189775.590000  21554.815935  1867.441419
    6047.2370  190331.940000  21656.975585  1885.082526
    6048.7630  190793.800000  21746.661766  1900.251534
    6050.2890  190900.190000  21794.850494  1916.950661
    6051.8160  191217.090000  21843.565203  1940.181217
    6053.4220  191661.520000  21871.772961  1965.936849
    6054.9510  192228.450000  21912.505658  1992.223812
    6056.5570  192766.920000  21959.762263  2019.041292
    6058.2410  193032.910000  21994.527942  2041.387436
    6059.8490  193434.410000  22033.796708  2058.261076
    6061.5350  193331.420000  22011.585277  2066.664424
    6063.2220  193631.970000  22037.891120  2072.598835
    6064.9100  194100.030000  22092.686911  2070.058038
    6066.6760  194561.610000  22170.018849  2063.048769
    6068.3650  195044.700000  22269.872656  2054.570375
    6070.1330  195584.330000  22367.223304  2036.622181
    6071.9020  196150.470000  22466.090169  2019.199345
    6073.7490  196975.120000  22627.464828  2019.307087
    6075.5210  197511.300000  22759.367022  2040.944718
    6077.3690  197962.000000  22913.771219  2081.111432
    6079.2200  198575.220000  23069.697744  2124.806991
    6081.1490  199096.950000  23209.133627  2171.030397
    6083.0020  199924.200000  23392.098507  2221.788039
    6084.9340  200475.980000  23560.543778  2269.068600
    6086.8660  201133.280000  23754.542442  2297.881871
    6088.8000  201596.090000  23899.012526  2302.222915
    6090.8130  202330.420000  24079.024374  2288.093879
    6092.8270  203094.280000  24286.540420  2255.494647
    6094.8430  203898.660000  24487.581358  2222.423141
    6096.8590  204564.550000  24656.130554  2193.881992
    6098.8780  205222.950000  24809.185041  2167.869632
    6100.9750  205860.890000  24927.750216  2158.385847
    6103.0750  206627.340000  25081.835050  2176.432092
    6105.1750  207358.310000  25240.434772  2216.007743
    6107.2770  208173.810000  25418.553389  2282.112059
    6109.4590  208964.810000  25623.191634  2354.745997
    6111.6430  209825.340000  25809.314925  2426.909095
    6113.8270  210481.390000  25989.984198  2485.602887
    6116.0130  211285.970000  26156.154693  2531.822816
    6118.2800  212039.050000  26323.825873  2557.572217
    6120.4700  212862.660000  26490.022933  2570.854076
    6122.7400  213792.780000  26686.724397  2582.660911
    6125.0110  214500.440000  26869.956122  2595.000709
    6127.3630  215565.590000  27088.688038  2621.868483
    6129.6390  216356.280000  27288.940038  2659.264267
    6131.9950  217220.480000  27490.702995  2696.190564
    6134.3520  217974.220000  27676.973860  2732.644438
    6136.7900  218995.450000  27873.765822  2761.629636
    6139.1510  219790.220000  28035.078958  2774.144873
    6141.5940  220638.500000  28216.886636  2788.184356
    6144.0380  221518.310000  28395.232170  2801.758483
    6146.4840  222363.620000  28586.053810  2813.856521
    6148.9320  223456.470000  28819.424742  2820.487183
    6151.4620  224605.830000  29073.293371  2829.647086
    6153.9940  225379.720000  29297.688560  2845.337314
    6156.5280  226487.110000  29552.579531  2862.553429
    6159.0640  227528.030000  29767.001257  2869.303851
    6161.6030  228295.470000  29935.908441  2859.576998
    6164.2220  229406.440000  30160.353911  2850.382733
    6166.8440  230170.910000  30347.317252  2850.718649
    6169.4700  231081.910000  30570.797903  2882.584353
    6172.0960  232102.420000  30844.755619  2940.973767
    6174.8060  233166.470000  31138.271640  3012.898770
    6177.5170  233944.020000  31400.281441  3080.348857
    6180.2310  235345.090000  31723.791030  3146.330663
    6182.9480  236036.690000  31921.835021  3197.838968
    6185.6670  237151.810000  32176.374903  3245.876705
    6188.4690  238158.450000  32431.436296  3281.446097
    6191.2730  239155.590000  32701.022427  3318.544703
    6194.0810  240450.280000  33010.091977  3358.170502
    6196.8910  241339.470000  33280.696079  3400.326756
    6199.7030  242521.190000  33622.822854  3447.013100
    6202.5990  243679.410000  33981.439141  3494.224518
    6205.4980  244679.170000  34303.584126  3538.966878
    6208.3990  245711.440000  34593.259097  3586.241934
    6211.3040  246718.230000  34865.434266  3637.046373
    6214.2100  248021.550000  35167.122897  3690.377062
    6217.2020  249182.370000  35453.324836  3732.237941
    6220.1960  250233.720000  35725.022768  3753.626206
    6223.1930  251502.590000  35999.256580  3771.543325
    6226.1930  252678.980000  36253.967707  3778.990193
    6229.1960  253931.890000  36528.255392  3785.973607
    6232.2840  255038.310000  36803.014926  3788.479568
    6235.3750  255333.270000  37004.281902  3779.510988
    6238.4690  258333.730000  37597.075803  3820.075841
    6241.5650  252751.720000  36887.386488  3732.169362
    6244.7480  258445.220000  37939.195380  3836.792598
    6247.8520  260246.250000  38375.540794  3894.943986
    6251.0410  261692.800000  38743.395274  3966.627735
    6254.2330  262909.840000  39102.764183  4052.841174
    6257.4290  264073.440000  39425.635277  4147.580890
    6260.7100  265141.530000  39730.007512  4230.845094
    6263.9130  266620.160000  40096.899968  4288.645822
    6267.2020  267665.310000  40403.336039  4333.975962
    6270.4940  268844.970000  40752.284268  4376.835146
    6273.7900  270051.160000  41113.700955  4424.217482
    6277.1720  271291.840000  41502.644239  4482.128933
    6280.4750  272542.090000  41894.144212  4537.576509
    6283.8650  273829.810000  42275.122058  4589.553681
    6287.2580  274929.090000  42632.599618  4635.051036
    6290.6550  276135.840000  42987.609308  4678.085376
    6294.0560  277044.160000  43292.132276  4723.645796
    6297.5440  278629.970000  43734.209815  4786.740163
    6300.9540  279984.310000  44116.751630  4850.358239
    6304.4500  281136.190000  44460.813861  4909.505451
    6307.9500  282151.560000  44779.407215  4954.188465
    6311.5380  283582.440000  45176.492519  5006.393895
    6315.0470  284999.870000  45599.088356  5054.129966
    6318.5600  286201.810000  46011.215931  5094.396404
    6322.1610  287409.250000  46420.824305  5125.187749
    6325.7660  288372.220000  46779.967959  5157.510884
    6329.3750  289662.720000  47237.648466  5207.366260
    6333.0730  290885.750000  47682.839697  5257.752102
    6336.6910  292340.280000  48159.502281  5312.659016
    6340.3970  293399.310000  48548.704666  5371.098844
    6344.1090  294575.910000  48975.429266  5435.071787
    6347.8260  296079.000000  49407.651981  5507.568904
    6351.5460  297242.590000  49792.412189  5574.600228
    6355.2710  298255.720000  50176.673096  5640.158903
    6359.0850  299575.370000  50607.411538  5711.245001
    6362.8190  300841.560000  51034.697648  5794.856695
    6366.6450  301840.250000  51430.526858  5874.006292
    6370.4730  302966.440000  51835.800521  5946.679760
    6374.3070  304298.190000  52286.651487  6016.887559
    6378.2300  305503.440000  52767.002293  6086.620726
    6382.0750  306670.190000  53220.830499  6147.877316
    6386.0090  307983.500000  53720.206202  6215.674272
    6389.9480  308893.280000  54121.084672  6278.994430
    6393.8930  309861.620000  54504.475127  6337.845034
    6397.8420  311319.470000  55002.388945  6413.220864
    6401.8820  312627.840000  55491.811733  6482.132032
    6405.8430  313802.720000  55973.731941  6543.567514
    6409.8940  314581.120000  56379.181956  6600.536781
    6413.9500  315760.030000  56856.157539  6672.032435
    6418.0130  316983.500000  57331.586637  6748.050997
    6422.0810  318064.440000  57802.614242  6823.612364
    6426.1530  319140.940000  58265.073028  6894.691884
    6430.3180  320473.940000  58837.120845  6974.306963
    6434.4020  321441.470000  59276.650374  7029.450053
    6438.5790  322482.500000  59744.663391  7090.117203
    6442.7610  323457.060000  60197.231894  7147.319344
    6446.9490  324757.120000  60710.312701  7230.047311
    6451.2300  325581.750000  61178.852486  7316.306193
    6455.4300  326706.840000  61738.964996  7409.094670
    6459.7230  327861.500000  62291.579934  7510.411539
    6463.9340  328983.660000  62834.738658  7604.263554
    6468.2390  329908.340000  63329.348197  7689.631464
    6472.5500  330922.530000  63829.489386  7766.536403
    6476.9550  332206.250000  64381.157891  7855.972032
    6481.2780  333205.500000  64878.313593  7941.930778
    6485.6070  334220.250000  65390.056576  8033.426962
    6490.0310  335243.530000  65908.223610  8113.442248
    6494.4610  336168.310000  66377.952266  8183.999415
    6498.8980  337256.620000  66898.204235  8264.085884
    6503.3410  337992.470000  67372.951016  8338.694065
    6507.7900  339222.810000  67937.227112  8429.834572
    6512.3350  340199.690000  68476.989473  8525.500821
    6516.7970  340971.090000  68965.245799  8618.686489
    6521.3550  342240.000000  69543.068086  8715.414551
    6525.9200  342909.440000  70000.360286  8798.668375
    6530.4920  343855.370000  70532.185173  8893.459624
    6535.0690  344598.840000  71029.547885  8982.775927
    6539.6550  345358.840000  71552.395994  9072.619144
    6544.2470  346119.340000  72088.723331  9155.983765
    6548.9360  346825.370000  72629.661339  9235.893836
    6553.5410  347140.940000  73041.068462  9304.320523
    6558.2440  348471.000000  73690.951210  9405.277924
    6562.9540  348837.590000  74167.381843  9490.767232
    6567.6710  349630.690000  74736.337973  9592.786655
    6572.3950  350425.310000  75299.732940  9691.329194
    6577.2180  351183.470000  75858.729901  9793.410812
    6581.9560  351585.120000  76288.167231  9883.007261
    6586.7920  352756.310000  76909.197950  9988.150882
    6591.5460  353605.030000  77462.701983  10094.811266
    6596.3970  354096.250000  77923.670859  10183.001076
    6601.2570  355240.000000  78547.270646  10288.735103
    6606.1250  355587.250000  78978.261847  10373.978963
    6611.0910  356541.030000  79586.805925  10477.753806
    6615.9730  357175.340000  80114.896428  10575.064346
    6620.9550  357910.190000  80734.507734  10681.914620
    6625.8530  357909.500000  81132.624983  10757.284588
    6630.8500  359222.370000  81841.185881  10881.168252
    6635.8550  359539.750000  82316.349169  10969.610210
    6640.8690  360123.660000  82884.947583  11075.555498
    6645.8910  360488.090000  83377.118960  11174.047687
    6650.9190  360874.030000  83873.771641  11268.057468
    6655.9570  362129.470000  84577.967379  11397.599919
    6661.0960  362431.470000  85086.672049  11497.681521
    6666.1500  362778.970000  85576.845558  11592.272945
    6671.3050  362967.970000  86056.632198  11691.412447
    6676.4690  363437.500000  86603.856137  11790.066356
    6681.6420  363229.560000  86975.548818  11870.259035
    6686.8220  363478.160000  87467.842597  11964.981948
    6692.0110  362910.250000  87762.610245  12037.220509
    6697.3030  360884.840000  87751.934235  12064.001127
    6702.5090  345046.000000  84970.721268  11701.309299
    6707.7240  386676.660000  95337.081701  13166.146023
    6713.0420  373809.810000  92231.907466  12764.516062
    6718.3690  371541.530000  92097.209844  12774.406128
    6723.7050  370346.720000  92245.052305  12821.823088
    6729.0490  369706.470000  92543.459486  12900.787635
    6734.4030  368154.720000  92640.303005  12947.261319
    6739.7660  374470.500000  94598.727837  13256.275039
    6745.1370  370019.780000  94074.635666  13229.821205
    6750.6140  364540.590000  92342.076399  13019.886290
    6756.0030  367721.910000  94576.967429  13371.478564
    6761.4980  372613.780000  96775.459138  13710.616241
    6766.9060  374243.120000  97116.436964  13800.276659
    6772.4200  366119.030000  95674.949081  13631.461942
    6777.9430  375201.440000  98361.852897  14055.166563
    6783.4760  374253.370000  98626.405295  14131.410686
    6789.0180  373143.810000  98817.419005  14201.191861
    6794.5690  371497.780000  98838.962902  14238.490389
    6800.2280  367642.280000  98278.019927  14192.326060
    6805.7990  357383.280000  96599.524545  13999.684859
    6811.4770  387768.810000  104608.657042  15201.579114
    6817.0670  381236.840000  103550.230032  15088.001258
    6822.7650  379223.410000  103596.288481  15128.940573
    6828.4730  378200.500000  103863.909349  15205.412930
    6834.1900  377822.090000  104301.049414  15302.426697
    6839.9180  377655.220000  104792.757637  15426.975964
    6845.6560  377269.870000  105216.882441  15536.028825
    6851.4050  377384.030000  105791.514839  15655.625608
    6857.1630  377323.720000  106325.749764  15774.748932
    6863.0310  376944.910000  106772.462279  15877.405319
    6868.8100  376757.620000  107264.641172  15996.581816
    6874.6980  376867.870000  107870.415319  16128.302510
    6880.4980  376887.620000  108407.584343  16258.535832
    6886.4070  376567.910000  108863.347476  16376.303851
    6892.3270  376581.720000  109431.641468  16501.612039
    6898.2580  376589.030000  109993.413502  16637.438492
    6904.2000  376468.870000  110540.653825  16769.795162
    6910.1520  375995.220000  110967.507201  16881.687095
    6916.1150  375998.090000  111520.793644  17012.103539
    6922.0890  375173.500000  111889.702353  17109.050383
    6928.1750  374764.410000  112361.976015  17227.511100
    6934.1710  374944.840000  112965.890800  17369.536949
    6940.2790  375444.810000  113680.227275  17537.062228
    6946.2960  375055.280000  114179.118294  17659.121141
    6952.4280  374368.280000  114567.482797  17762.704721
    6958.5690  373964.810000  115018.467460  17885.846506
    6964.6200  374079.840000  115661.896589  18031.482368
    6970.7850  374040.370000  116229.854260  18166.672476
    6976.9600  373898.470000  116800.259247  18299.363722
    6983.1470  373891.060000  117398.305245  18444.615251
    6989.3470  373291.160000  117775.786783  18556.380737
    6995.6610  373276.780000  118381.703825  18694.664868
    7001.8820  372981.940000  118901.212375  18828.506041
    7008.1160  373246.620000  119565.265941  18983.845502
    7014.4650  372779.810000  120033.746445  19107.729205
    7020.7220  372294.500000  120453.912120  19227.166632
    7027.0960  371565.750000  120825.436899  19333.103496
    7033.3760  371595.500000  121460.474497  19486.558049
    7039.7740  371461.750000  122040.126682  19628.564895
    7046.1830  371015.560000  122495.219218  19748.094436
    7052.6040  371175.840000  123147.757215  19901.137932
    7059.0390  370976.690000  123715.952273  20051.745964
    7065.4840  370669.030000  124218.555937  20181.847505
    7071.9420  370395.910000  124749.716314  20320.504712
    7078.4130  370205.280000  125289.450271  20460.693648
    7084.8960  369501.190000  125706.642837  20573.399623
    7091.3910  369285.620000  126300.297211  20726.610013
    7097.8990  368914.560000  126773.505437  20862.391172
    7104.5260  368501.030000  127265.251993  20995.675895
    7111.0590  368443.000000  127871.521112  21152.498238

