# XDI/1.0
# Column.1: energy eV
# Column.2: i0
# Column.3: itrans
# Column.4: irefer
# Beamline.name: SSRL 2-3
# Beamline.notes: vert slits = 0.6mm
# Detector.I0: N2 15cm
# Detector.I1: N2 30cm
# Detector.I2: N2 15cm
# Element.edge: K
# Element.symbol: Cr
# Mono.d_spacing: 3.13550
# Mono.name: Si(111)
# Mono.notes: unfocused, detuned 75%, clockwise at E=5990eV
# Sample.formula: Cr2O3
# Sample.name: Cr2O3
# Sample.prep: powder on tape (4 layers)
# Sample.reference: Cr foil
# Sample.temperature: 100K
# Scan.start_time: 1997-04-18 21:40:35
# ///
#    Note: mono d_spacing is nominal!
#     exafs to K16
#     396  E XMU XMUR I0
#-------------
#   energy   i0   itrans  irefer
    5759.9890  212404.800000  11051.695863  1410.299211
    5769.9800  212100.800000  11251.704557  1442.300825
    5780.0070  211914.800000  11462.700246  1480.299315
    5790.0030  211766.800000  11679.704404  1518.300579
    5799.9650  211570.800000  11897.695123  1553.299991
    5810.0340  211342.800000  12109.696069  1595.299447
    5820.0000  211224.800000  12339.703235  1634.300639
    5830.0020  211166.800000  12578.705474  1676.300602
    5839.9710  211170.800000  12806.697608  1717.299991
    5849.9750  210993.800000  13043.706399  1760.300880
    5860.0160  210830.800000  13276.703941  1805.300240
    5870.0220  210539.800000  13506.697977  1845.299710
    5879.9930  210386.800000  13745.695785  1887.299066
    5890.0000  210070.800000  13980.697339  1933.300443
    5899.9710  209830.800000  14216.702299  1976.300162
    5909.9780  209623.800000  14461.695952  2025.299307
    5920.0210  209366.800000  14701.694182  2069.298659
    5930.0260  209111.800000  14945.706040  2114.300526
    5939.9950  208693.800000  15171.703877  2158.300499
    5949.9990  208384.800000  15406.698318  2204.300821
    5959.9650  208075.800000  15628.707327  2248.300138
    5969.9670  207640.800000  15837.707760  2289.301304
    5970.4870  207408.800000  15838.706536  2290.302088
    5971.0060  207107.800000  15827.697801  2288.300565
    5971.5260  205864.800000  15736.701236  2275.299387
    5971.9720  204675.800000  15655.703068  2263.300766
    5972.4920  204160.800000  15627.699030  2259.299747
    5973.0120  205796.800000  15762.698182  2279.299763
    5973.5320  207530.800000  15907.707853  2302.300320
    5973.9780  208106.800000  15960.699342  2310.300054
    5974.4980  208013.800000  15961.705124  2311.300663
    5975.0190  207946.800000  15968.695552  2312.299023
    5975.4640  208174.800000  15988.698220  2317.298602
    5975.9850  208123.800000  16004.694652  2320.299089
    5976.5060  208062.800000  16006.693159  2319.298936
    5977.0260  207975.800000  16010.707654  2319.300721
    5977.4730  208046.800000  16024.696355  2324.300316
    5977.9940  208232.800000  16046.707440  2325.301445
    5978.5150  208247.800000  16058.699325  2328.300767
    5979.0370  208119.800000  16056.694661  2328.298808
    5979.4830  208122.800000  16070.692798  2330.298312
    5980.0050  208353.800000  16099.699323  2333.300051
    5980.5260  208247.800000  16101.697750  2335.300827
    5980.9730  208220.800000  16098.692462  2333.298788
    5981.4950  208242.800000  16112.698803  2336.300526
    5982.0160  208366.800000  16132.695484  2340.299677
    5982.4630  208649.800000  16152.700487  2342.299756
    5982.9860  208677.800000  16170.707648  2343.300570
    5983.5070  208564.800000  16164.698900  2342.301011
    5984.0300  208503.800000  16164.706694  2342.302141
    5984.4770  208499.800000  16166.708259  2341.301759
    5984.9990  208146.800000  16144.696409  2337.300428
    5985.5210  206060.800000  15983.697090  2313.300450
    5985.9700  202200.800000  15688.693020  2269.299658
    5986.4920  192354.800000  14932.702154  2158.299371
    5987.0150  180524.800000  14001.705792  2022.301389
    5987.4630  182326.800000  14142.701293  2038.301130
    5987.9860  192558.800000  14928.700401  2149.300761
    5988.5090  198655.800000  15389.703454  2206.299503
    5989.0320  202252.800000  15644.703107  2229.299477
    5989.4800  203950.800000  15751.707755  2219.302125
    5990.0030  205148.800000  15769.703030  2173.299608
    5990.5260  205519.800000  15647.706859  2088.300087
    5990.9750  205852.800000  15459.695551  2016.300406
    5991.4990  205955.800000  15197.707326  1940.299966
    5992.0210  206221.800000  15159.695414  1900.299088
    5992.4710  206076.800000  15227.696605  1883.298790
    5992.9950  206361.800000  15243.694452  1859.299751
    5993.5180  206621.800000  15032.703618  1809.300070
    5993.9670  206534.800000  14758.702683  1760.301183
    5994.4920  206444.800000  14424.700712  1703.300883
    5995.0160  206461.800000  14190.694138  1665.298535
    5995.4650  206586.800000  14140.707054  1653.300616
    5995.9890  206676.800000  14187.697565  1658.300397
    5996.5140  206545.800000  14225.699881  1663.299333
    5996.9630  206423.800000  14203.697770  1659.299188
    5997.4880  206518.800000  14154.696108  1648.299993
    5998.0120  206395.800000  14032.705111  1622.301280
    5998.5380  206328.800000  13793.700644  1572.300782
    5998.9870  206238.800000  13429.700651  1506.300615
    5999.5130  206054.800000  12766.699162  1403.299364
    6000.0370  206117.800000  11859.697057  1277.299202
    6000.4870  205580.800000  10868.700492  1149.300095
    6001.0130  204206.800000  9523.697877   988.300187
    6001.4620  202777.800000  8450.695944   865.299835
    6001.9880  202870.800000  7418.703587   748.300475
    6002.5130  204524.800000  6679.701090   664.299777
    6002.9640  205577.800000  6332.699149   623.299929
    6003.4900  205865.800000  6110.701022   596.299930
    6004.0160  206122.800000  5876.698400   566.299668
    6004.4660  206187.800000  5568.698722   533.299768
    6004.9930  206227.800000  5073.700246   482.300162
    6005.5180  206022.800000  4530.701764   427.300333
    6005.9700  206035.800000  4136.698228   387.299858
    6006.4960  206140.800000  3746.699917   348.299837
    6007.0220  206051.800000  3307.701686   304.300248
    6007.4730  205959.800000  2899.699190   266.299944
    6008.0000  205980.800000  2479.700931   226.300155
    6008.5260  205917.800000  2225.699081   202.299918
    6008.9780  205578.800000  2159.700199   194.300066
    6009.5040  205212.800000  2182.699666   195.299986
    6010.0320  205179.800000  2250.700875   199.300143
    6010.9360  205258.560000  2263.457367   199.064070
    6011.8390  205415.840000  2078.726429   186.358025
    6012.8180  205293.640000  1914.511205   175.180982
    6013.7980  205331.950000  1993.809116   187.534010
    6014.7780  205271.800000  2333.620571   221.415103
    6015.7580  205589.160000  2678.944325   253.826024
    6016.8150  205647.030000  2901.782643   273.764851
    6017.7960  205703.420000  3035.133537   284.233960
    6018.9290  205795.340000  3248.999750   300.232886
    6019.9860  205956.780000  3441.379268   312.759843
    6021.1200  206275.730000  3562.272803   321.816996
    6022.1770  206415.200000  3531.679986   319.402146
    6023.3880  206605.200000  3355.600449   307.518118
    6024.5220  206686.720000  3206.032582   295.162041
    6025.7330  207004.750000  3145.980920   289.334952
    6026.8690  207417.300000  3157.440421   288.037876
    6028.1570  207731.370000  3321.414527   302.269811
    6029.3690  207839.970000  3598.904194   324.031161
    6030.5820  208120.080000  3909.905562   350.321218
    6031.8720  208369.700000  4218.421078   375.141086
    6033.1610  208936.860000  4484.451094   397.490240
    6034.5280  209031.530000  4699.988688   416.366708
    6035.8190  209443.720000  4880.048038   430.773893
    6037.1870  209791.420000  5068.615985   446.711100
    6038.5550  210465.660000  5224.700650   458.176180
    6040.0000  210846.410000  5302.296103   461.171150
    6041.3700  211107.670000  5336.405440   463.694795
    6042.8160  211568.450000  5328.030122   463.747798
    6044.2640  211966.770000  5269.168220   461.331003
    6045.7120  212654.590000  5228.817778   460.441810
    6047.2370  213113.940000  5239.986659   462.083325
    6048.7630  213693.800000  5263.662879   466.252078
    6050.2890  214377.190000  5235.854366   466.951927
    6051.8160  214948.090000  5128.563278   463.180967
    6053.4220  215674.520000  4946.777821   451.937863
    6054.9510  216122.450000  4774.513793   440.224764
    6056.5570  216717.920000  4661.757860   435.040826
    6058.2410  217379.910000  4568.521183   431.386241
    6059.8490  217693.410000  4434.791919   420.259751
    6061.5350  217990.420000  4294.581522   408.664038
    6063.2220  218447.970000  4178.882485   398.597104
    6064.9100  219199.030000  4085.696150   388.059007
    6066.6760  220021.610000  4047.023889   380.050085
    6068.3650  220598.700000  4041.864978   378.569809
    6070.1330  221437.330000  4035.219160   372.620656
    6071.9020  222325.470000  4042.092039   367.199269
    6073.7490  223081.120000  4095.474043   370.307133
    6075.5210  224013.300000  4186.367551   380.943741
    6077.3690  224747.000000  4283.777977   395.110947
    6079.2200  225524.220000  4363.701037   407.806924
    6081.1490  226416.950000  4440.136908   420.030988
    6083.0020  227200.200000  4547.085904   436.785770
    6084.9340  228020.980000  4695.551834   458.069043
    6086.8660  228865.280000  4841.528775   473.880800
    6088.8000  229795.090000  4976.023105   485.223339
    6090.8130  230588.420000  5107.026771   490.094225
    6092.8270  231694.280000  5262.544968   494.494003
    6094.8430  232541.660000  5402.578782   496.423141
    6096.8590  233765.550000  5498.122608   492.882086
    6098.8780  234618.950000  5510.182305   485.869946
    6100.9750  235656.890000  5495.754534   480.387068
    6103.0750  236788.340000  5504.839761   485.432837
    6105.1750  238130.310000  5557.442636   498.008091
    6107.2770  239314.810000  5642.554462   516.112188
    6109.4590  240653.810000  5751.182166   535.745753
    6111.6430  241733.340000  5859.323878   557.909352
    6113.8270  242895.390000  5947.975186   577.600894
    6116.0130  244010.970000  6002.146668   587.822165
    6118.2800  244969.050000  6019.829135   591.573038
    6120.4700  246192.660000  6043.023101   591.853228
    6122.7400  247235.780000  6104.733514   594.662332
    6125.0110  248522.440000  6189.957020   602.000588
    6127.3630  249743.590000  6272.692897   611.868280
    6129.6390  250906.280000  6334.940890   624.264254
    6131.9950  251762.480000  6388.701907   634.189866
    6134.3520  253083.220000  6417.979621   640.645106
    6136.7900  254418.450000  6403.773029   639.629199
    6139.1510  255416.220000  6384.073989   637.142751
    6141.5940  256877.500000  6377.889974   636.185124
    6144.0380  258405.310000  6383.224143   636.757314
    6146.4840  259478.620000  6406.065718   634.857516
    6148.9320  260827.470000  6462.428360   637.487987
    6151.4620  262288.840000  6565.300891   644.648120
    6153.9940  263521.720000  6698.682019   656.335488
    6156.5280  265239.120000  6803.585542   665.554174
    6159.0640  266764.030000  6814.996045   661.302096
    6161.6030  268045.470000  6771.919861   652.577502
    6164.2220  269246.440000  6751.360864   643.383116
    6166.8440  270867.910000  6792.318118   643.717885
    6169.4700  272231.910000  6873.780963   653.581731
    6172.0960  273627.440000  7029.766378   676.975276
    6174.8060  275031.470000  7259.257330   709.896941
    6177.5170  276517.030000  7456.263448   739.348719
    6180.2310  278131.090000  7572.789922   759.328757
    6182.9480  279575.690000  7620.820651   769.838952
    6185.6670  281279.810000  7682.376497   778.878620
    6188.4690  282693.440000  7770.434318   788.447119
    6191.2730  284592.590000  7883.008724   804.543413
    6194.0810  286039.280000  8004.101870   818.170232
    6196.8910  287907.470000  8202.706361   842.327104
    6199.7030  289627.190000  8463.819457   872.011684
    6202.5990  290855.410000  8737.449002   902.226457
    6205.4980  292402.160000  8979.597998   929.970062
    6208.3990  294428.440000  9147.256383   953.243390
    6211.3040  296060.220000  9235.427276   969.044136
    6214.2100  298107.530000  9321.105713   982.375423
    6217.2020  299607.370000  9365.304507   990.235833
    6220.1960  301431.720000  9372.018765   987.624734
    6223.1930  303188.590000  9328.246183   978.543557
    6226.1930  305371.970000  9305.983751   971.992304
    6229.1960  307231.870000  9307.241373   966.970529
    6232.2840  308952.310000  9362.009227   963.477570
    6235.3750  307862.250000  9401.285570   959.511904
    6238.4690  312848.720000  9671.077700   984.075902
    6241.5650  306598.720000  9575.385464   969.171004
    6244.7480  314395.220000  9896.210013  1001.794465
    6247.8520  317081.250000  10078.536365  1025.945935
    6251.0410  319313.780000  10269.386198  1056.627525
    6254.2330  321382.840000  10452.749569  1090.838930
    6257.4290  323477.440000  10585.629505  1117.579710
    6260.7100  324881.530000  10651.019261  1135.848096
    6263.9130  326745.160000  10691.922393  1147.646748
    6267.2020  328533.310000  10785.333836  1157.974355
    6270.4940  330476.970000  10949.261100  1177.830250
    6273.7900  332532.160000  11142.711168  1202.217270
    6277.1720  334799.840000  11375.658585  1230.131237
    6280.4750  336313.090000  11575.138225  1260.576986
    6283.8650  338351.810000  11766.119963  1282.551191
    6287.2580  340070.090000  11922.611741  1299.051968
    6290.6550  341864.840000  12037.628527  1313.086476
    6294.0560  344302.160000  12171.153003  1329.645870
    6297.5440  346291.970000  12309.191542  1351.736772
    6300.9540  348329.310000  12432.740121  1373.357299
    6304.4500  350265.190000  12501.811494  1383.506963
    6307.9500  352097.560000  12556.384939  1395.183986
    6311.5380  354068.440000  12684.480366  1410.391362
    6315.0470  356213.870000  12887.080642  1431.127090
    6318.5600  358476.810000  13135.204233  1456.393205
    6322.1610  360502.250000  13352.841358  1477.187878
    6325.7660  362533.220000  13592.988543  1501.512767
    6329.3750  364135.720000  13873.654130  1531.366778
    6333.0730  366244.750000  14171.824818  1566.749084
    6336.6910  368283.280000  14414.511247  1595.661565
    6340.3970  370492.310000  14640.720017  1624.103041
    6344.1090  372158.910000  14802.423842  1650.072028
    6347.8260  374398.000000  14937.657935  1673.570558
    6351.5460  376468.590000  15049.392388  1694.599818
    6355.2710  378794.720000  15186.660175  1714.158728
    6359.0850  380764.370000  15323.425445  1737.243623
    6362.8190  382905.560000  15483.708074  1765.859215
    6366.6450  385830.250000  15681.513052  1799.006388
    6370.4730  387283.440000  15806.809498  1822.679786
    6374.3070  389258.190000  15997.634234  1850.883053
    6378.2300  391684.440000  16256.982611  1885.617806
    6382.0750  393818.190000  16558.827712  1922.880565
    6386.0090  396439.500000  16834.198533  1959.672651
    6389.9480  397713.280000  16958.078766  1978.991445
    6393.8930  400268.620000  17104.470665  2001.842230
    6397.8420  402006.470000  17232.362955  2021.219785
    6401.8820  403763.840000  17407.796013  2044.129758
    6405.8430  406010.720000  17647.719411  2074.565145
    6409.8940  408152.120000  17907.165644  2105.531539
    6413.9500  410382.030000  18140.128099  2140.029270
    6418.0130  412725.500000  18355.600331  2173.054373
    6422.0810  414486.440000  18557.597240  2206.609688
    6426.1530  417175.940000  18843.085908  2242.690029
    6430.3180  419231.940000  19108.099884  2276.304564
    6434.4020  421493.470000  19363.643957  2306.447092
    6438.5790  423479.500000  19571.669889  2334.118040
    6442.7610  425756.060000  19775.238082  2361.319453
    6446.9490  428595.120000  20031.292926  2399.047292
    6451.2300  431245.750000  20361.891971  2444.308139
    6455.4300  432918.840000  20738.985240  2501.094095
    6459.7230  435718.500000  21176.591405  2562.410437
    6463.9340  437650.660000  21508.710922  2612.258080
    6468.2390  440188.340000  21858.343032  2661.632565
    6472.5500  442012.530000  22134.494529  2699.536874
    6476.9550  444992.250000  22448.164835  2743.972989
    6481.2780  446908.500000  22681.347160  2780.936873
    6485.6070  449306.250000  22967.030396  2826.428008
    6490.0310  451443.530000  23218.242702  2868.448505
    6494.4610  454034.310000  23463.963307  2903.000240
    6498.8980  456138.620000  23669.179399  2935.080130
    6503.3410  458777.470000  23926.946147  2974.691326
    6507.7900  460841.810000  24237.204746  3020.827616
    6512.3350  462659.690000  24543.959450  3069.494141
    6516.7970  464828.090000  24764.263804  3108.693801
    6521.3550  467235.000000  24949.064914  3139.417720
    6525.9200  469450.440000  25208.361221  3183.673548
    6530.4920  472093.370000  25538.185019  3235.455701
    6535.0690  474375.840000  25868.549321  3282.771118
    6539.6550  476566.840000  26217.391443  3335.614720
    6544.2470  478970.340000  26617.760337  3393.984754
    6548.9360  480944.370000  27012.632002  3448.887132
    6553.5410  482725.940000  27360.027028  3499.317959
    6558.2440  484302.000000  27705.935801  3550.277179
    6562.9540  486597.590000  28156.366083  3614.767281
    6567.6710  488657.690000  28626.309968  3685.783876
    6572.3950  490969.310000  29060.754483  3752.332403
    6577.2180  493241.470000  29436.719314  3816.408707
    6581.9560  495348.120000  29735.177963  3863.010447
    6586.7920  497558.310000  30028.194463  3916.148933
    6591.5460  499507.030000  30308.696122  3966.815660
    6596.3970  502443.250000  30615.692314  4018.005753
    6601.2570  504867.000000  30872.228578  4060.727027
    6606.1250  505899.250000  31060.270878  4095.978091
    6611.0910  508631.030000  31436.852831  4156.763895
    6615.9730  511257.340000  31906.924788  4231.070626
    6620.9550  513654.190000  32385.515065  4305.913269
    6625.8530  515699.500000  32793.595314  4369.279981
    6630.8500  518251.370000  33202.208501  4438.175617
    6635.8550  520403.750000  33625.340108  4505.603988
    6640.8690  522502.660000  34046.971120  4575.559904
    6645.8910  523841.090000  34431.139570  4641.048799
    6650.9190  525782.000000  34874.806026  4710.060148
    6655.9570  527763.500000  35306.965474  4783.604141
    6661.0960  529780.440000  35778.661083  4858.674463
    6666.1500  532502.940000  36266.897793  4939.279245
    6671.3050  533969.000000  36620.594918  5002.409943
    6676.4690  536067.500000  37018.844210  5070.072341
    6681.6420  538503.560000  37462.600208  5141.259599
    6686.8220  540036.120000  37853.862651  5204.980867
    6692.0110  541112.250000  38156.638133  5259.230606
    6697.3030  539897.870000  38322.913923  5295.005364
    6702.5090  515478.000000  36774.719005  5094.312012
    6707.7240  560283.620000  40315.020628  5600.142925
    6713.0420  556238.810000  40303.878960  5610.510516
    6718.3690  556467.500000  40584.197564  5667.401754
    6723.7050  557635.750000  40970.077019  5731.830688
    6729.0490  558895.440000  41387.438104  5810.783453
    6734.4030  559197.690000  41755.328004  5878.261530
    6739.7660  565806.500000  42570.739325  6005.274383
    6745.1370  564104.750000  42774.621076  6049.816622
    6750.6140  551372.560000  42155.060355  5975.882186
    6756.0030  565054.940000  43544.001926  6190.482088
    6761.4980  559976.750000  43457.448546  6197.607094
    6766.9060  572187.120000  44814.424845  6412.268258
    6772.4200  562952.000000  44520.883310  6385.452569
    6777.9430  578443.440000  46088.883024  6628.170157
    6783.4760  580365.370000  46584.406165  6719.413363
    6789.0180  580519.810000  46933.416464  6789.185145
    6794.5690  580719.750000  47273.944263  6858.489874
    6800.2280  579017.250000  47479.985762  6902.317811
    6805.7990  549065.250000  45735.567932  6668.688987
    6811.4770  598289.810000  49890.632948  7291.572788
    6817.0670  595242.870000  50084.245980  7338.001330
    6822.7650  596584.440000  50645.318126  7436.942355
    6828.4730  597371.500000  51138.937734  7524.423511
    6834.1900  598576.120000  51638.096355  7624.431036
    6839.9180  600708.250000  52244.748350  7733.970476
    6845.6560  601585.870000  52780.894835  7829.035208
    6851.4050  603809.000000  53412.559918  7940.632426
    6857.1630  605811.690000  53988.723204  8047.755198
    6863.0310  607648.940000  54630.444225  8165.404892
    6868.8100  609312.620000  55191.638719  8268.585623
    6874.6980  610663.870000  55703.371619  8369.303581
    6880.4980  612424.620000  56247.627671  8472.544404
    6886.4070  614007.940000  56789.352925  8575.307562
    6892.3270  616160.690000  57407.605233  8698.606061
    6898.2580  617757.060000  57982.385919  8810.439043
    6904.2000  619010.870000  58554.727698  8921.801010
    6910.1520  620328.250000  59174.503998  9034.691454
    6916.1150  622001.120000  59816.820064  9155.107254
    6922.0890  622414.500000  60347.665826  9261.048484
    6928.1750  624669.440000  61061.015223  9396.521934
    6934.1710  626883.870000  61737.856986  9521.527696
    6940.2790  628451.810000  62396.260798  9651.065758
    6946.2960  628765.310000  62938.123118  9757.118011
    6952.4280  630085.310000  63611.560514  9892.720889
    6958.5690  632007.810000  64370.454814  10036.834259
    6964.6200  633234.810000  65016.904234  10162.488073
    6970.7850  634379.370000  65685.825137  10287.670618
    6976.9600  634113.440000  66185.265714  10394.375743
    6983.1470  636708.060000  66983.227080  10547.609494
    6989.3470  637622.190000  67570.731901  10672.378223
    6995.6610  638728.810000  68217.693508  10801.672322
    7001.8820  640454.940000  68930.225448  10944.496942
    7008.1160  641880.620000  69592.258746  11072.851883
    7014.4650  643698.810000  70267.819216  11216.735795
    7020.7220  644967.500000  70893.867018  11350.149639
    7027.0960  646154.750000  71552.398409  11487.092643
    7033.3760  648115.500000  72310.469223  11630.557726
    7039.7740  648935.750000  72961.121227  11764.572834
    7046.1830  651419.560000  73807.172854  11939.090351
    7052.6040  652678.870000  74506.787744  12081.148130
    7059.0390  653801.690000  75251.969736  12235.751035
    7065.4840  655010.000000  75993.628610  12389.861320
    7071.9420  655875.870000  76728.755625  12543.511858
    7078.4130  657719.250000  77569.411559  12715.683700
    7084.8960  658788.190000  78324.626764  12875.394304
    7091.3910  660233.620000  79149.284151  13032.610834
    7097.8990  660573.560000  79759.550337  13174.385974
    7104.5260  661392.000000  80411.218893  13320.666547
    7111.0590  661918.000000  81064.463286  13457.488019

