# XDI/1.0
# Column.1: energy eV
# Column.2: i0
# Column.3: itrans
# Column.4: irefer
# Beamline.name: SSRL 2-3
# Beamline.notes: vert slits = 0.6mm
# Detector.I0: N2 15cm
# Detector.I1: N2 30cm
# Detector.I2: N2 15cm
# Element.edge: K
# Element.symbol: Cr
# Mono.d_spacing: 3.13550
# Mono.name: Si(111)
# Mono.notes: unfocused, detuned 75%, clockwise at E=5990eV
# Sample.formula: Cr2S3
# Sample.name: Cr2S3
# Sample.prep: powder on tape (4 layers)
# Sample.reference: Cr foil
# Sample.temperature: 100K
# Scan.start_time: 1997-04-18 17:59:32
# ///
#    Note: mono d_spacing is nominal!
#     exafs to K16
#     396  E XMU XMUR I0
#-------------
#   energy   i0   itrans  irefer
    5759.9890  223720.800000  9241.699949  1180.300239
    5769.9800  223423.800000  9421.698840  1211.300307
    5780.0070  223235.800000  9610.695683  1243.299350
    5790.0030  222988.800000  9794.701204  1275.300129
    5799.9650  222655.800000  9978.702594  1307.300183
    5810.0340  222532.800000  10180.697307  1342.299927
    5820.0000  222087.800000  10366.700552  1376.300083
    5830.0020  221811.800000  10560.696944  1408.299960
    5839.9710  221616.800000  10763.704332  1446.300279
    5849.9750  221446.800000  10970.703263  1482.300659
    5860.0160  221233.800000  11175.703157  1519.300545
    5870.0220  220907.800000  11381.695646  1558.299901
    5879.9930  220661.800000  11588.696839  1594.299114
    5890.0000  220425.800000  11797.694492  1631.299816
    5899.9710  220135.800000  12011.705452  1671.301441
    5909.9780  219673.800000  12218.701877  1708.299991
    5920.0210  219375.800000  12432.701773  1750.300068
    5930.0260  218912.800000  12631.699363  1786.300063
    5939.9950  218793.800000  12862.701076  1830.299718
    5949.9990  218312.800000  13067.704706  1867.300671
    5959.9650  218119.800000  13285.702449  1908.301259
    5969.9670  217656.800000  13486.706685  1947.301388
    5970.4870  217383.800000  13476.702513  1945.300483
    5971.0060  217054.800000  13468.705135  1945.301263
    5971.5260  216147.800000  13422.701737  1941.301128
    5971.9720  214809.800000  13348.699781  1931.299293
    5972.4920  213728.800000  13294.706143  1922.301030
    5973.0120  214549.800000  13352.703574  1931.301020
    5973.5320  216123.800000  13462.706640  1948.300378
    5973.9780  217296.800000  13551.702172  1961.301260
    5974.4980  217389.800000  13563.699306  1963.300637
    5975.0190  217493.800000  13579.704261  1966.301455
    5975.4640  217580.800000  13593.697630  1969.300248
    5975.9850  217655.800000  13611.702708  1970.300198
    5976.5060  217510.800000  13613.698173  1973.300466
    5977.0260  217268.800000  13606.699703  1969.300289
    5977.4730  217366.800000  13624.699008  1972.299753
    5977.9940  217444.800000  13640.700743  1977.299501
    5978.5150  217298.800000  13648.701173  1975.300157
    5979.0370  217238.800000  13648.699049  1977.299865
    5979.4830  217454.800000  13670.702138  1983.299779
    5980.0050  217380.800000  13676.699990  1982.299738
    5980.5260  217257.800000  13678.697106  1983.299093
    5980.9730  217212.800000  13685.700357  1985.300957
    5981.4950  217391.800000  13703.705291  1986.301279
    5982.0160  217337.800000  13704.699801  1989.300014
    5982.4630  217231.800000  13714.696378  1989.300334
    5982.9860  217318.800000  13722.700054  1992.299302
    5983.5070  217622.800000  13754.695943  1995.299748
    5984.0300  217701.800000  13762.702784  1997.299936
    5984.4770  217500.800000  13757.698092  1993.299944
    5984.9990  217442.800000  13760.701708  1995.300823
    5985.5210  216322.800000  13694.697807  1985.299405
    5985.9700  213294.800000  13508.704377  1955.301197
    5986.4920  205550.800000  13022.702823  1884.299635
    5987.0150  192146.800000  12173.697275  1760.298969
    5987.4630  187836.800000  11905.702663  1721.301173
    5987.9860  197647.800000  12532.705394  1805.301581
    5988.5090  205616.800000  13030.701700  1873.299365
    5989.0320  210186.800000  13308.696040  1903.298929
    5989.4800  212373.800000  13424.695111  1903.299444
    5990.0030  213441.800000  13443.694638  1870.298785
    5990.5260  214294.800000  13403.697975  1811.299670
    5990.9750  214688.800000  13312.700944  1753.299669
    5991.4990  214657.800000  13153.700584  1692.299292
    5992.0210  214790.800000  13006.698984  1641.299869
    5992.4710  215074.800000  12920.702560  1606.300766
    5992.9950  215143.800000  12844.704712  1572.300199
    5993.5180  215123.800000  12825.696228  1551.299049
    5993.9670  215254.800000  12837.703700  1535.300984
    5994.4920  215391.800000  12851.694820  1523.299484
    5995.0160  215270.800000  12815.697291  1508.299369
    5995.4650  215158.800000  12731.705267  1491.300205
    5995.9890  215401.800000  12538.703256  1465.300178
    5996.5140  215542.800000  12097.701764  1412.299882
    5996.9630  215322.800000  11494.702735  1344.299820
    5997.4880  215238.800000  10630.700722  1240.299781
    5998.0120  215379.800000  9763.695649  1133.299151
    5998.5380  215155.800000  9070.699802  1041.299463
    5998.9870  215105.800000  8607.698697   973.299922
    5999.5130  215246.800000  8175.699483   906.300162
    6000.0370  215204.800000  7877.701180   854.299993
    6000.4870  214698.800000  7755.700456   825.300362
    6001.0130  213693.800000  7743.696436   806.299634
    6001.4620  212388.800000  7811.699590   800.300143
    6001.9880  211568.800000  7982.696336   805.299711
    6002.5130  213169.800000  8278.700662   823.299717
    6002.9640  214451.800000  8508.698596   837.299878
    6003.4900  215217.800000  8701.701129   845.300189
    6004.0160  215217.800000  8780.703578   843.300043
    6004.4660  215317.800000  8775.695946   835.299510
    6004.9930  215286.800000  8683.703365   818.300290
    6005.5180  215079.800000  8520.696804   795.299999
    6005.9700  215350.800000  8394.698086   778.299651
    6006.4960  215389.800000  8244.698682   758.299699
    6007.0220  215158.800000  8113.702995   737.300571
    6007.4730  215202.800000  8023.701422   723.300032
    6008.0000  215482.800000  7943.699446   710.299968
    6008.5260  215262.800000  7850.699274   693.300056
    6008.9780  215199.800000  7788.699483   683.300120
    6009.5040  215158.800000  7717.699753   670.300178
    6010.0320  215304.800000  7661.698524   657.299633
    6010.9360  215121.560000  7539.457755   642.064357
    6011.8390  214930.840000  7415.729126   635.357975
    6012.8180  215114.640000  7347.514519   644.181407
    6013.7980  215019.950000  7353.811973   660.534327
    6014.7780  214762.800000  7399.616417   678.414489
    6015.7580  214982.160000  7481.946968   692.826306
    6016.8150  215333.030000  7543.783197   698.764716
    6017.7960  215294.420000  7550.135323   694.233782
    6018.9290  215250.340000  7527.001256   683.233040
    6019.9860  215440.780000  7529.382770   676.760435
    6021.1200  215697.730000  7551.272027   674.816842
    6022.1770  215756.200000  7570.681324   678.402212
    6023.3880  215881.200000  7608.600532   685.517848
    6024.5220  216308.720000  7678.034935   694.162391
    6025.7330  216546.750000  7769.978983   707.335249
    6026.8690  216692.300000  7880.445004   711.038554
    6028.1570  217096.370000  8037.413732   719.269875
    6029.3690  217606.970000  8164.900545   723.030802
    6030.5820  217799.080000  8258.904788   728.321277
    6031.8720  217769.700000  8375.418799   734.140452
    6033.1610  218265.860000  8555.453031   748.490222
    6034.5280  218802.530000  8762.994054   767.367566
    6035.8190  219043.720000  8934.045757   779.773602
    6037.1870  219357.420000  9061.615852   790.711152
    6038.5550  219947.660000  9132.702098   792.176237
    6040.0000  220428.410000  9162.297545   792.170978
    6041.3700  220672.670000  9154.407638   791.695423
    6042.8160  221104.450000  9129.027887   790.747336
    6044.2640  221587.770000  9112.168917   791.330766
    6045.7120  222167.590000  9119.819452   796.441982
    6047.2370  222480.940000  9104.988362   799.082915
    6048.7630  222989.800000  9073.662900   798.251978
    6050.2890  223945.190000  9032.853633   801.951886
    6051.8160  224615.090000  8986.560883   807.180657
    6053.4220  224938.520000  8946.783842   811.938338
    6054.9510  225358.450000  8930.516622   821.225326
    6056.5570  226426.920000  8937.762193   831.041325
    6058.2410  226902.910000  8902.518522   832.386183
    6059.8490  227378.410000  8858.793965   835.259883
    6061.5350  228050.420000  8832.585186   835.664339
    6063.2220  228305.970000  8820.880571   836.596589
    6064.9100  228855.030000  8832.700024   834.059736
    6066.6760  229362.610000  8864.027221   830.050448
    6068.3650  230276.700000  8937.863954   829.569514
    6070.1330  230950.330000  9007.221692   825.621094
    6071.9020  231816.470000  9058.087282   819.198366
    6073.7490  232624.120000  9088.473225   818.306705
    6075.5210  233361.300000  9165.366745   828.943647
    6077.3690  234147.000000  9323.779976   854.111205
    6079.2200  235300.220000  9559.698900   888.806463
    6081.1490  236154.950000  9803.134264   923.030646
    6083.0020  236902.200000  10032.084408   957.785335
    6084.9340  237704.980000  10234.550753   990.068967
    6086.8660  238735.280000  10425.527053  1015.881108
    6088.8000  239779.090000  10606.022935  1026.222968
    6090.8130  240713.420000  10759.026722  1025.093776
    6092.8270  241714.280000  10881.546441  1013.494609
    6094.8430  242616.660000  10958.579515   998.422912
    6096.8590  243488.550000  11019.119704   983.881239
    6098.8780  244549.950000  11072.179187   973.870036
    6100.9750  245728.890000  11121.752274   967.386528
    6103.0750  247011.340000  11181.842379   974.432768
    6105.1750  247877.310000  11217.442198   994.007930
    6107.2770  248857.810000  11260.552502  1018.111753
    6109.4590  249927.810000  11267.180465  1046.745803
    6111.6430  251172.340000  11240.320037  1066.908610
    6113.8270  252334.390000  11196.980596  1080.600767
    6116.0130  253536.970000  11169.151532  1087.822129
    6118.2800  254787.050000  11181.829539  1093.572761
    6120.4700  255908.660000  11208.019893  1093.853282
    6122.7400  257163.780000  11280.732232  1098.662091
    6125.0110  258268.440000  11383.950461  1108.999779
    6127.3630  259565.590000  11535.686749  1128.868074
    6129.6390  260848.280000  11704.939540  1152.264268
    6131.9950  262153.500000  11882.707715  1177.189962
    6134.3520  263490.220000  12055.973359  1201.644760
    6136.7900  264721.470000  12201.772360  1219.629613
    6139.1510  266167.220000  12349.070016  1232.142788
    6141.5940  267446.500000  12516.897686  1246.185825
    6144.0380  268796.310000  12698.220695  1263.756811
    6146.4840  270123.620000  12877.063507  1276.857149
    6148.9320  271537.470000  13040.424908  1285.487650
    6151.4620  272898.840000  13196.295906  1294.647137
    6153.9940  274330.720000  13343.686956  1306.336149
    6156.5280  275580.120000  13483.576685  1317.553230
    6159.0640  276882.030000  13612.990641  1321.301890
    6161.6030  278536.470000  13762.919766  1325.577220
    6164.2220  279875.440000  13907.366267  1323.383411
    6166.8440  281471.910000  14048.317753  1330.718013
    6169.4700  283152.910000  14198.780345  1350.581269
    6172.0960  284725.440000  14373.760365  1382.974131
    6174.8060  286205.470000  14597.262037  1425.896843
    6177.5170  287907.030000  14853.263650  1473.348373
    6180.2310  289374.090000  15083.784311  1512.328143
    6182.9480  290872.690000  15233.831027  1540.839935
    6185.6670  292154.810000  15317.375429  1558.878781
    6188.4690  294097.440000  15399.439937  1572.447214
    6191.2730  295599.590000  15455.018955  1580.545123
    6194.0810  297180.280000  15531.107652  1594.171169
    6196.8910  298901.470000  15636.704252  1611.326878
    6199.7030  300516.190000  15735.819797  1627.011066
    6202.5990  302246.410000  15871.445463  1646.226356
    6205.4980  303937.160000  16031.603126  1669.970513
    6208.3990  305458.440000  16196.249937  1691.242947
    6211.3040  306923.220000  16343.424065  1719.044509
    6214.2100  308854.530000  16530.107074  1746.375311
    6217.2020  310577.370000  16731.313927  1773.235864
    6220.1960  312462.720000  16949.022560  1793.625815
    6223.1930  314385.590000  17182.238865  1809.542817
    6226.1930  316151.970000  17428.991811  1826.992214
    6229.1960  317978.870000  17679.237599  1842.969140
    6232.2840  319761.310000  17924.003841  1857.476435
    6235.3750  319705.250000  18060.287691  1855.511645
    6238.4690  324263.720000  18457.081820  1888.075649
    6241.5650  316737.720000  18153.385091  1848.170165
    6244.7480  325722.220000  18783.201483  1910.794133
    6247.8520  328544.250000  19062.547231  1944.946620
    6251.0410  330729.780000  19334.395641  1991.628543
    6254.2330  332518.840000  19616.744645  2046.838730
    6257.4290  334716.440000  19924.631410  2107.578642
    6260.7100  336574.530000  20180.012018  2158.847707
    6263.9130  338221.160000  20389.926932  2193.646003
    6267.2020  340207.310000  20634.329454  2223.972847
    6270.4940  342099.970000  20835.265427  2249.830780
    6273.7900  344098.160000  21019.697315  2276.214977
    6277.1720  345750.840000  21155.658266  2298.131497
    6280.4750  348115.090000  21329.138520  2323.577778
    6283.8650  350322.810000  21493.123434  2347.551908
    6287.2580  352550.090000  21709.625019  2374.053214
    6290.6550  354136.840000  21935.632998  2400.085573
    6294.0560  356172.160000  22198.155714  2434.645619
    6297.5440  358326.970000  22478.198718  2475.738892
    6300.9540  360296.310000  22730.753248  2515.357087
    6304.4500  362354.190000  22973.816603  2551.506984
    6307.9500  364343.560000  23225.394456  2586.186168
    6311.5380  366405.440000  23506.488275  2619.392655
    6315.0470  369010.870000  23830.090804  2657.128694
    6318.5600  370901.810000  24122.194842  2687.392424
    6322.1610  373087.250000  24442.839413  2714.186581
    6325.7660  374942.220000  24732.988865  2743.512227
    6329.3750  377353.720000  25073.637538  2783.363245
    6333.0730  379347.750000  25397.819670  2816.748852
    6336.6910  381768.280000  25742.513004  2858.662413
    6340.3970  384116.310000  26068.727017  2900.103417
    6344.1090  386293.910000  26374.417457  2946.071254
    6347.8260  388479.000000  26659.648078  2991.569345
    6351.5460  390592.590000  26945.412156  3035.602880
    6355.2710  392762.720000  27241.666658  3084.157929
    6359.0850  395039.370000  27576.430233  3135.245344
    6362.8190  397093.560000  27903.717409  3193.862248
    6366.6450  399147.250000  28290.509539  3260.007175
    6370.4730  401378.440000  28682.831062  3315.683290
    6374.3070  403654.190000  29047.648869  3371.883688
    6378.2300  405834.440000  29408.986567  3423.619392
    6382.0750  407863.190000  29738.835955  3463.881564
    6386.0090  409998.500000  30066.196510  3507.671760
    6389.9480  412115.280000  30372.060279  3547.989539
    6393.8930  414492.620000  30719.455080  3598.842154
    6397.8420  416522.470000  31010.362094  3644.220215
    6401.8820  419033.840000  31363.778634  3689.126394
    6405.8430  421308.720000  31695.726676  3730.565634
    6409.8940  423764.120000  32046.179749  3781.534878
    6413.9500  425795.030000  32362.135444  3827.030133
    6418.0130  428016.500000  32708.590383  3879.051815
    6422.0810  430562.440000  33102.584271  3940.605351
    6426.1530  432443.940000  33449.093949  3987.692327
    6430.3180  434863.940000  33862.093420  4045.301971
    6434.4020  437051.470000  34285.652372  4099.446516
    6438.5790  439052.500000  34721.670284  4152.115635
    6442.7610  441637.060000  35188.221620  4213.317801
    6446.9490  444251.120000  35649.316998  4279.049854
    6451.2300  446255.750000  36063.894704  4346.310039
    6455.4300  448998.840000  36546.970789  4429.090704
    6459.7230  450653.500000  36975.582100  4498.408878
    6463.9340  453620.660000  37497.726262  4577.258775
    6468.2390  455871.340000  37938.355567  4642.632807
    6472.5500  457833.530000  38376.513560  4705.540510
    6476.9550  460233.250000  38840.146923  4776.969866
    6481.2780  462497.500000  39304.348104  4846.933086
    6485.6070  465007.250000  39789.020081  4920.425433
    6490.0310  467600.530000  40275.218854  4993.446552
    6494.4610  469738.310000  40718.956774  5054.999494
    6498.8980  471946.620000  41161.192628  5119.080771
    6503.3410  474080.470000  41605.945396  5179.689307
    6507.7900  476295.810000  42029.178816  5245.822842
    6512.3350  478644.690000  42488.971478  5320.496083
    6516.7970  480735.090000  42941.270076  5397.691542
    6521.3550  483378.000000  43461.042246  5478.415716
    6525.9200  485650.440000  43951.383643  5558.676864
    6530.4920  488102.370000  44453.209250  5640.457383
    6535.0690  490128.840000  44926.521305  5713.771396
    6539.6550  492297.840000  45433.371913  5791.613363
    6544.2470  494359.340000  45924.771779  5866.989625
    6548.9360  496344.370000  46407.634399  5937.884827
    6553.5410  498095.940000  46880.026431  6005.319796
    6558.2440  500582.000000  47454.930142  6091.275013
    6562.9540  502681.590000  47972.356933  6172.765457
    6567.6710  504758.690000  48526.326907  6264.786274
    6572.3950  507706.310000  49186.743713  6364.331191
    6577.2180  509857.470000  49768.697198  6460.406336
    6581.9560  512151.120000  50344.216052  6557.016763
    6586.7920  514369.310000  50908.174476  6650.144006
    6591.5460  516151.030000  51414.715047  6737.813168
    6596.3970  518642.250000  52001.696296  6837.002052
    6601.2570  520997.000000  52568.247805  6926.733070
    6606.1250  523351.250000  53168.272920  7020.980248
    6611.0910  525869.060000  53806.821154  7125.758997
    6615.9730  527873.370000  54376.899678  7224.069418
    6620.9550  530028.190000  54973.496859  7314.913386
    6625.8530  532184.500000  55575.598762  7413.281833
    6630.8500  534601.370000  56203.237745  7515.182941
    6635.8550  536334.750000  56753.339458  7616.603228
    6640.8690  537891.690000  57283.992414  7706.562358
    6645.8910  540451.060000  57946.147462  7816.048244
    6650.9190  542906.000000  58575.773676  7919.057471
    6655.9570  545009.500000  59198.974891  8023.600215
    6661.0960  546632.440000  59762.694018  8121.676679
    6666.1500  549102.940000  60427.900584  8231.283271
    6671.3050  550792.000000  61008.624683  8329.415140
    6676.4690  553022.500000  61623.832556  8437.066591
    6681.6420  554956.560000  62247.591287  8543.261473
    6686.8220  556469.120000  62818.880897  8641.979622
    6692.0110  557766.250000  63380.609309  8740.225304
    6697.3030  557061.870000  63721.900536  8805.005010
    6702.5090  534407.000000  61569.752613  8529.312164
    6707.7240  579130.620000  67130.067804  9322.147755
    6713.0420  573919.810000  66975.888583  9324.512476
    6718.3690  574220.500000  67488.179829  9411.397633
    6723.7050  575079.750000  68061.092900  9515.829992
    6729.0490  575776.440000  68621.470057  9620.790755
    6734.4030  576359.690000  69183.329305  9725.262949
    6739.7660  582393.500000  70399.723536  9924.270634
    6745.1370  581231.750000  70746.605640  10002.815052
    6750.6140  567194.560000  69505.048081  9858.878149
    6756.0030  575139.940000  71018.001354  10096.485420
    6761.4980  576458.750000  71677.492392  10215.618602
    6766.9060  590753.120000  73918.430706  10564.266248
    6772.4200  577562.000000  72788.923648  10433.458399
    6777.9430  595881.440000  75616.893794  10858.169230
    6783.4760  596692.370000  76252.384525  10982.407644
    6789.0180  597067.810000  76819.436805  11096.188728
    6794.5690  597688.750000  77424.954137  11216.491308
    6800.2280  595512.250000  77672.009900  11288.324478
    6805.7990  563417.250000  73948.541979  10778.683920
    6811.4770  616444.810000  81473.661571  11904.575203
    6817.0670  613583.870000  81659.238633  11965.002882
    6822.7650  613800.440000  82267.312929  12084.937700
    6828.4730  614906.500000  82977.976045  12219.428973
    6834.1900  615973.120000  83692.078063  12356.426922
    6839.9180  617619.250000  84487.717373  12502.969390
    6845.6560  619190.870000  85298.901585  12655.040285
    6851.4050  621013.000000  86143.543534  12810.626422
    6857.1630  622453.690000  86946.782144  12965.762533
    6863.0310  623793.940000  87739.402820  13123.402535
    6868.8100  625094.620000  88542.621086  13275.590261
    6874.6980  626704.870000  89432.372762  13444.306771
    6880.4980  628109.620000  90250.641514  13606.541985
    6886.4070  629851.940000  91129.336338  13770.309321
    6892.3270  631480.690000  91988.665037  13938.619423
    6898.2580  633275.060000  92909.403434  14109.436964
    6904.2000  635176.870000  93834.678597  14280.793114
    6910.1520  638265.250000  94946.535531  14486.684965
    6916.1150  639423.120000  95785.794861  14660.098199
    6922.0890  639622.500000  96477.629091  14804.040623
    6928.1750  641169.440000  97419.048268  14990.531358
    6934.1710  643294.870000  98405.845116  15180.522685
    6940.2790  644843.810000  99328.260966  15374.067054
    6946.2960  645765.310000  100161.125125  15547.131320
    6952.4280  647843.310000  101184.528179  15748.716369
    6958.5690  649451.810000  102131.442722  15925.835071
    6964.6200  650053.810000  102909.930457  16091.499386
    6970.7850  651819.370000  103931.859123  16292.672774
    6976.9600  653200.440000  104883.271809  16491.367047
    6983.1470  654423.060000  105769.269948  16670.622241
    6989.3470  655143.190000  106620.715533  16848.368420
    6995.6610  657135.810000  107667.708336  17054.663910
    7001.8820  658054.940000  108551.251258  17239.502772
    7008.1160  659064.620000  109428.305153  17421.857349
    7014.4650  661417.810000  110536.825504  17633.733222
    7020.7220  663204.500000  111599.814648  17846.142690
    7027.0960  664306.750000  112536.432728  18041.091472
    7033.3760  665206.500000  113443.454979  18229.561211
    7039.7740  666427.750000  114418.036890  18441.558495
    7046.1830  667143.560000  115291.217687  18623.090865
    7052.6040  668664.870000  116364.789393  18849.153258
    7059.0390  669773.690000  117328.991174  19061.753238
    7065.4840  671213.000000  118366.592330  19280.852852
    7071.9420  672292.870000  119383.746358  19493.499754
    7078.4130  673574.250000  120418.386711  19714.674063
    7084.8960  674578.190000  121411.620140  19928.394855
    7091.3910  676444.620000  122579.350778  20167.624714
    7097.8990  676249.560000  123365.584596  20355.398912
    7104.5260  676947.000000  124328.217410  20567.660905
    7111.0590  678026.000000  125335.561851  20789.512135

