# XDI/1.0
# Column.1: energy eV
# Column.2: i0
# Column.3: itrans
# Column.4: irefer
# Beamline.name: SSRL 2-3
# Beamline.notes: vert slits = 0.6mm
# Detector.I0: N2 15cm
# Detector.I1: N2 30cm
# Detector.I2: N2 15cm
# Element.edge: K
# Element.symbol: Cr
# Mono.d_spacing: 3.13550
# Mono.name: Si(111)
# Mono.notes: unfocused, detuned 75%, clockwise at E=5990eV
# Sample.formula: Cr2S3
# Sample.name: Cr2S3
# Sample.prep: powder on tape (4 layers)
# Sample.reference: Cr foil
# Sample.temperature: 15K
# Scan.start_time: 1997-04-18 16:16:50
# ///
#    Note: mono d_spacing is nominal!
#     exafs to K16
#     396  E XMU XMUR I0
#-------------
#   energy   i0   itrans  irefer
    5759.9890  234426.800000  9345.700385  1195.300222
    5769.9800  234283.800000  9533.702965  1230.300196
    5780.0070  234035.800000  9719.703317  1261.300202
    5790.0030  233861.800000  9916.701368  1293.300325
    5799.9650  233410.800000  10094.704620  1326.301168
    5810.0340  233177.800000  10297.696739  1362.299734
    5820.0000  233028.800000  10497.698588  1396.300238
    5830.0020  232563.800000  10692.703532  1430.300549
    5839.9710  232234.800000  10889.694996  1466.299572
    5849.9750  232039.800000  11103.694699  1504.298849
    5860.0160  231752.800000  11309.694591  1539.299259
    5870.0220  231491.800000  11521.702741  1579.299591
    5879.9930  231068.800000  11725.705718  1616.301479
    5890.0000  231079.800000  11957.696210  1659.298803
    5899.9710  230724.800000  12171.700892  1697.299839
    5909.9780  230366.800000  12388.700674  1735.300889
    5920.0210  230265.800000  12617.696262  1777.299885
    5930.0260  229710.800000  12824.701635  1817.300442
    5939.9950  229277.800000  13037.702715  1857.301019
    5949.9990  228957.800000  13253.699316  1898.299921
    5959.9650  228697.800000  13471.703941  1938.300351
    5969.9670  228078.800000  13670.704468  1977.299813
    5970.4870  227951.800000  13675.695457  1976.299592
    5971.0060  227741.800000  13677.696741  1978.299290
    5971.5260  226984.800000  13645.694558  1976.299299
    5971.9720  225918.800000  13588.701055  1965.299484
    5972.4920  224304.800000  13500.704121  1956.299818
    5973.0120  224613.800000  13532.706823  1961.301891
    5973.5320  226599.800000  13659.694181  1979.298454
    5973.9780  227983.800000  13756.694437  1992.299648
    5974.4980  228244.800000  13784.706282  1998.301835
    5975.0190  228294.800000  13797.698132  2000.299214
    5975.4640  228415.800000  13809.705641  2002.300265
    5975.9850  228519.800000  13833.702966  2005.300367
    5976.5060  228471.800000  13835.694201  2007.298502
    5977.0260  228444.800000  13844.701630  2008.300025
    5977.4730  228437.800000  13855.703643  2010.299997
    5977.9940  228569.800000  13877.705535  2012.300579
    5978.5150  228392.800000  13880.693997  2015.299770
    5979.0370  228289.800000  13881.706226  2014.300270
    5979.4830  228365.800000  13900.693476  2015.299318
    5980.0050  228451.800000  13911.700479  2019.300667
    5980.5260  228171.800000  13905.700361  2018.300567
    5980.9730  228319.800000  13922.695491  2022.299596
    5981.4950  228300.800000  13929.697303  2023.300437
    5982.0160  228366.800000  13944.694428  2024.298272
    5982.4630  228275.800000  13949.693644  2024.299160
    5982.9860  228460.800000  13961.696867  2026.300349
    5983.5070  228584.800000  13979.699722  2028.300515
    5984.0300  228468.800000  13984.696972  2030.300189
    5984.4770  228507.800000  13990.693316  2030.299553
    5984.9990  228538.800000  13999.701374  2031.300034
    5985.5210  227744.800000  13960.706485  2024.301502
    5985.9700  225403.800000  13821.695017  2003.299278
    5986.4920  218936.800000  13428.698604  1944.300172
    5987.0150  205469.800000  12599.700760  1823.300034
    5987.4630  196759.800000  12076.696607  1747.299923
    5987.9860  203900.800000  12518.700935  1808.300766
    5988.5090  213963.800000  13125.696081  1889.298964
    5989.0320  219498.800000  13457.704476  1929.301008
    5989.4800  222157.800000  13606.694852  1937.299398
    5990.0030  223848.800000  13669.701631  1917.299765
    5990.5260  224666.800000  13639.696695  1859.298778
    5990.9750  225072.800000  13550.695920  1801.298701
    5991.4990  225239.800000  13401.700641  1737.300744
    5992.0210  225435.800000  13255.696940  1685.299711
    5992.4710  225735.800000  13155.702159  1647.299514
    5992.9950  225749.800000  13063.698887  1612.299315
    5993.5180  225745.800000  13026.706385  1585.301464
    5993.9670  225873.800000  13039.698515  1568.300323
    5994.4920  225975.800000  13052.698760  1554.299426
    5995.0160  225940.800000  13035.703527  1537.300595
    5995.4650  225863.800000  12976.696380  1523.300196
    5995.9890  225821.800000  12803.700013  1500.300157
    5996.5140  225933.800000  12437.698175  1455.299958
    5996.9630  225764.800000  11898.695228  1393.299603
    5997.4880  225789.800000  11052.697082  1292.299873
    5998.0120  225850.800000  10146.700759  1182.299894
    5998.5380  225696.800000  9372.702785  1083.300615
    5998.9870  225624.800000  8864.703055  1009.300425
    5999.5130  225687.800000  8390.697304   937.299537
    6000.0370  225540.800000  8040.699435   881.300232
    6000.4870  225162.800000  7874.696908   848.299685
    6001.0130  224300.800000  7826.700336   823.299698
    6001.4620  222875.800000  7866.700039   814.300078
    6001.9880  221721.800000  8017.698759   814.299897
    6002.5130  222537.800000  8280.703883   829.300234
    6002.9640  224127.800000  8537.698072   846.299828
    6003.4900  225336.800000  8767.696998   858.299796
    6004.0160  225439.800000  8884.704129   858.300645
    6004.4660  225485.800000  8904.699631   853.300238
    6004.9930  225560.800000  8837.700741   839.299844
    6005.5180  225495.800000  8689.701019   817.300481
    6005.9700  225408.800000  8544.703716   797.300719
    6006.4960  225211.800000  8381.696102   776.299634
    6007.0220  225481.800000  8256.703750   757.300189
    6007.4730  226172.800000  8185.696557   745.299826
    6008.0000  224582.800000  8027.703193   724.300048
    6008.5260  224829.800000  7948.702212   710.300380
    6008.9780  224843.800000  7883.696863   697.299640
    6009.5040  224763.800000  7813.703671   685.300448
    6010.0320  224877.800000  7752.699797   673.300287
    6010.9360  224798.560000  7632.456241   656.063768
    6011.8390  224577.840000  7503.723569   645.357645
    6012.8180  224481.640000  7411.507961   652.181046
    6013.7980  224622.950000  7410.806099   669.533699
    6014.7780  224984.800000  7477.622130   687.414957
    6015.7580  225077.160000  7552.942910   702.826144
    6016.8150  225083.030000  7617.782801   709.764791
    6017.7960  225265.420000  7630.133573   707.234031
    6018.9290  225322.340000  7615.997728   696.232933
    6019.9860  225115.780000  7599.381388   687.760128
    6021.1200  225420.730000  7619.270020   683.816664
    6022.1770  225624.200000  7644.678489   686.401726
    6023.3880  226274.200000  7694.598108   696.518126
    6024.5220  226625.720000  7755.031404   706.161613
    6025.7330  226860.750000  7851.977360   715.334791
    6026.8690  226922.300000  7962.441454   722.038129
    6028.1570  227191.370000  8118.413083   727.269406
    6029.3690  227549.970000  8244.900291   733.031109
    6030.5820  227892.080000  8345.906537   740.321434
    6031.8720  228317.700000  8472.419135   748.140922
    6033.1610  228364.860000  8630.449703   760.489947
    6034.5280  228551.530000  8826.986699   777.366541
    6035.8190  229080.720000  9016.050975   792.774414
    6037.1870  229510.420000  9157.621025   804.711405
    6038.5550  230092.660000  9237.701482   808.176420
    6040.0000  230248.410000  9253.295604   806.171137
    6041.3700  230716.670000  9260.410896   804.695303
    6042.8160  231194.450000  9233.028701   803.747697
    6044.2640  231775.770000  9218.168704   807.330943
    6045.7120  232333.590000  9217.816863   812.441983
    6047.2370  232901.940000  9219.985885   815.082867
    6048.7630  233197.800000  9176.666575   814.252325
    6050.2890  233553.190000  9112.853100   814.951926
    6051.8160  234083.090000  9062.564504   819.181292
    6053.4220  234868.520000  9037.782704   825.938361
    6054.9510  235569.450000  9031.511812   833.224450
    6056.5570  236413.920000  9028.761166   842.040781
    6058.2410  236854.910000  8992.516753   846.385592
    6059.8490  237330.410000  8944.790585   846.259952
    6061.5350  237847.420000  8906.580412   846.663774
    6063.2220  238224.970000  8896.878450   847.596552
    6064.9100  239396.030000  8935.697504   847.059118
    6066.6760  240184.610000  8976.022325   844.049477
    6068.3650  240850.700000  9033.864511   843.569690
    6070.1330  241503.330000  9108.219629   838.620719
    6071.9020  241757.470000  9138.086724   832.198765
    6073.7490  242549.120000  9161.475501   829.307094
    6075.5210  243208.300000  9220.371022   838.944502
    6077.3690  244235.000000  9381.774053   864.110933
    6079.2200  245337.220000  9607.698194   896.806349
    6081.1490  245810.950000  9850.140751   934.031369
    6083.0020  247418.200000  10119.092868   972.786177
    6084.9340  247736.980000  10305.550348  1003.068317
    6086.8660  248684.280000  10499.526282  1028.880317
    6088.8000  249503.090000  10670.023843  1040.223194
    6090.8130  249731.420000  10797.029180  1037.094466
    6092.8270  251216.280000  10943.549998  1028.494663
    6094.8430  251476.660000  10999.581010  1008.423461
    6096.8590  252673.550000  11075.122085   993.882130
    6098.8780  253115.950000  11099.185021   981.870046
    6100.9750  254414.890000  11151.760297   976.387600
    6103.0750  255985.340000  11218.836290   984.432621
    6105.1750  256559.310000  11245.441718  1002.007879
    6107.2770  257393.810000  11281.556755  1026.112353
    6109.4590  258102.810000  11273.186095  1047.746842
    6111.6430  259153.340000  11233.326415  1068.909460
    6113.8270  259911.390000  11164.976330  1082.601310
    6116.0130  261200.970000  11133.149632  1088.822798
    6118.2800  262636.060000  11142.830332  1095.573830
    6120.4700  263902.660000  11173.024240  1095.853293
    6122.7400  265405.780000  11241.731719  1100.662092
    6125.0110  266513.440000  11344.949579  1108.999962
    6127.3630  268045.590000  11510.688955  1127.867947
    6129.6390  269209.280000  11677.933901  1152.263271
    6131.9950  270725.500000  11879.703936  1182.189695
    6134.3520  271776.220000  12045.980154  1203.645667
    6136.7900  273718.470000  12222.775999  1224.629190
    6139.1510  275536.220000  12386.077877  1239.143097
    6141.5940  276877.500000  12548.889431  1254.185264
    6144.0380  278333.310000  12733.220331  1271.756928
    6146.4840  280081.620000  12929.067366  1284.857813
    6148.9320  281479.470000  13089.423192  1295.488073
    6151.4620  282994.840000  13245.298566  1303.648229
    6153.9940  284796.720000  13404.690226  1313.336259
    6156.5280  286775.120000  13574.585817  1331.554897
    6159.0640  288200.030000  13713.994224  1338.302189
    6161.6030  289125.470000  13818.921084  1334.577478
    6164.2220  291516.440000  14010.364850  1339.383458
    6166.8440  292509.910000  14123.323030  1342.718844
    6169.4700  294598.910000  14288.782717  1362.582511
    6172.0960  295798.440000  14437.764038  1393.974858
    6174.8060  297662.470000  14684.260319  1435.897650
    6177.5170  299305.030000  14955.262141  1483.348779
    6180.2310  300132.090000  15159.792272  1518.329440
    6182.9480  301753.690000  15329.822107  1549.839053
    6185.6670  302594.810000  15384.379091  1565.877939
    6188.4690  304482.440000  15455.430298  1579.446418
    6191.2730  304981.590000  15454.008417  1582.543581
    6194.0810  307088.280000  15546.107150  1595.169920
    6196.8910  310033.470000  15698.705542  1616.326949
    6199.7030  312945.190000  15872.817633  1640.011187
    6202.5990  314257.410000  15983.459834  1659.227989
    6205.4980  315522.160000  16119.599909  1676.970543
    6208.3990  314469.440000  16146.251239  1689.241989
    6211.3040  315857.220000  16300.426548  1716.043372
    6214.2100  318127.530000  16500.114827  1746.376972
    6217.2020  319489.370000  16676.307550  1769.236332
    6220.1960  320492.720000  16839.015778  1782.624224
    6223.1930  322774.590000  17085.244834  1802.544388
    6226.1930  324055.970000  17295.982477  1817.991368
    6229.1960  326012.870000  17555.229085  1833.969712
    6232.2840  325850.310000  17694.999829  1833.476890
    6235.3750  326922.250000  17894.284766  1840.511229
    6238.4690  329824.720000  18193.081089  1861.077018
    6241.5650  320019.720000  17771.385700  1810.171548
    6244.7480  328649.220000  18357.202079  1869.793471
    6247.8520  332195.250000  18667.534620  1906.945788
    6251.0410  332026.780000  18806.388545  1938.628236
    6254.2330  333412.840000  19063.747253  1992.839452
    6257.4290  334401.440000  19292.630573  2047.579139
    6260.7100  338131.530000  19663.024866  2108.848285
    6263.9130  340498.160000  19927.919168  2150.646989
    6267.2020  341799.310000  20119.324115  2177.973271
    6270.4940  342031.970000  20228.271644  2191.830879
    6273.7900  344433.160000  20425.702848  2219.216157
    6277.1720  347942.840000  20657.660382  2251.132028
    6280.4750  347929.090000  20682.143490  2259.577151
    6283.8650  348966.810000  20761.116069  2270.551645
    6287.2580  350204.090000  20883.619565  2288.052683
    6290.6550  352346.840000  21128.630815  2315.086453
    6294.0560  355126.160000  21440.145158  2355.646252
    6297.5440  357347.970000  21725.181226  2396.736482
    6300.9540  359598.310000  22002.753463  2442.357113
    6304.4500  362804.190000  22315.807129  2483.505989
    6307.9500  369248.560000  22826.383126  2548.184186
    6311.5380  373110.440000  23202.486777  2595.391732
    6315.0470  376148.870000  23553.089384  2635.128628
    6318.5600  378264.810000  23874.203055  2665.392979
    6322.1610  381017.250000  24220.845573  2697.187733
    6325.7660  384146.220000  24584.994112  2734.512736
    6329.3750  386785.720000  24939.648457  2771.364629
    6333.0730  389761.750000  25324.812719  2817.747072
    6336.6910  393264.280000  25735.512671  2864.660529
    6340.3970  396323.310000  26110.703278  2914.100855
    6344.1090  399704.910000  26496.417889  2965.069730
    6347.8260  403171.000000  26865.657271  3020.570708
    6351.5460  406108.590000  27172.395507  3068.600477
    6355.2710  408500.720000  27476.653401  3117.157961
    6359.0850  410708.370000  27790.421212  3168.243713
    6362.8190  412933.560000  28149.700310  3227.857835
    6366.6450  415147.250000  28542.502055  3289.005622
    6370.4730  417295.440000  28937.822027  3353.680703
    6374.3070  419653.190000  29325.652123  3411.884002
    6378.2300  422017.440000  29706.968271  3465.616851
    6382.0750  423931.190000  30034.843399  3503.880800
    6386.0090  426341.500000  30378.182454  3552.670834
    6389.9480  428648.280000  30714.065907  3600.989693
    6393.8930  431042.620000  31041.467488  3646.843400
    6397.8420  433373.470000  31352.370353  3691.219435
    6401.8820  435694.840000  31681.790702  3737.130571
    6405.8430  437643.720000  31989.737707  3778.568200
    6409.8940  439867.120000  32322.179982  3827.533808
    6413.9500  442132.030000  32646.137477  3874.030926
    6418.0130  444516.500000  32989.593875  3924.053496
    6422.0810  447287.440000  33399.583520  3985.606237
    6426.1530  449699.940000  33782.082567  4040.690367
    6430.3180  452161.940000  34176.093870  4094.302569
    6434.4020  453924.470000  34573.649562  4143.446041
    6438.5790  456712.500000  35087.680645  4202.119707
    6442.7610  458826.060000  35527.220737  4261.316644
    6446.9490  461507.120000  35983.283442  4327.047686
    6451.2300  464148.750000  36443.899666  4399.307239
    6455.4300  466403.840000  36894.993646  4471.097339
    6459.7230  468529.500000  37345.598750  4543.411068
    6463.9340  471100.660000  37848.705809  4619.256617
    6468.2390  473130.340000  38286.368186  4684.634561
    6472.5500  475160.530000  38706.506203  4748.537637
    6476.9550  477487.250000  39181.177199  4816.971726
    6481.2780  480163.500000  39683.348676  4893.934939
    6485.6070  482671.250000  40157.040506  4970.427140
    6490.0310  485237.530000  40654.255775  5047.451809
    6494.4610  487437.310000  41093.940901  5111.999848
    6498.8980  490250.620000  41594.199803  5184.081756
    6503.3410  492161.470000  41995.936084  5240.688347
    6507.7900  494318.810000  42409.214995  5307.827795
    6512.3350  496130.690000  42801.980716  5377.498912
    6516.7970  498379.090000  43262.275182  5453.693101
    6521.3550  499582.000000  43649.060073  5521.418207
    6525.9200  500025.440000  43983.386239  5581.675372
    6530.4920  500502.370000  44294.181885  5637.458447
    6535.0690  501197.840000  44656.546439  5695.770679
    6539.6550  503093.840000  45120.410871  5768.619017
    6544.2470  504147.340000  45540.751689  5832.983194
    6548.9360  506207.370000  46023.650583  5910.889971
    6553.5410  507945.940000  46492.035790  5975.316246
    6558.2440  510071.000000  47017.925928  6055.275840
    6562.9540  511897.590000  47537.343709  6136.764111
    6567.6710  513394.690000  48010.317012  6212.782887
    6572.3950  515276.310000  48562.774521  6301.333521
    6577.2180  517310.470000  49141.712530  6395.407896
    6581.9560  520393.120000  49796.192533  6500.015269
    6586.7920  522910.310000  50386.181352  6600.147241
    6591.5460  525233.000000  50926.681141  6689.813348
    6596.3970  526532.250000  51367.700668  6770.003360
    6601.2570  528932.000000  51928.245903  6861.731939
    6606.1250  531255.250000  52508.265880  6947.977448
    6611.0910  533421.060000  53106.859120  7050.764802
    6615.9730  536117.370000  53722.886954  7151.063672
    6620.9550  537586.190000  54253.477982  7241.910846
    6625.8530  539742.500000  54848.573220  7333.274735
    6630.8500  541319.370000  55400.212938  7423.179262
    6635.8550  542748.750000  55919.351765  7511.607612
    6640.8690  544784.690000  56487.967586  7613.558358
    6645.8910  546927.060000  57105.158153  7718.047735
    6650.9190  549328.000000  57714.804228  7827.058062
    6655.9570  551722.500000  58368.957712  7932.602790
    6661.0960  553686.440000  58972.694620  8040.679011
    6666.1500  556113.940000  59616.906581  8148.282765
    6671.3050  558087.000000  60220.622747  8248.413379
    6676.4690  560834.500000  60908.811550  8358.064265
    6681.6420  561931.560000  61419.603726  8456.260572
    6686.8220  563519.120000  61978.854083  8554.977384
    6692.0110  564474.250000  62491.638698  8648.230789
    6697.3030  564016.870000  62852.905457  8711.998055
    6702.5090  543031.000000  60974.723445  8473.311569
    6707.7240  586500.620000  66266.051692  9224.147052
    6713.0420  580245.810000  65996.837493  9213.509437
    6718.3690  580892.500000  66520.203524  9306.403521
    6723.7050  582179.750000  67135.049097  9410.830895
    6729.0490  582628.440000  67683.447957  9509.779203
    6734.4030  583519.690000  68261.314176  9610.259212
    6739.7660  589051.500000  69416.709968  9793.271969
    6745.1370  588864.750000  69892.652607  9896.820370
    6750.6140  574667.560000  68665.076156  9747.888691
    6756.0030  578461.940000  69667.975739  9921.476527
    6761.4980  585022.750000  70953.429221  10129.609163
    6766.9060  598315.120000  73036.445624  10450.277903
    6772.4200  584215.000000  71833.939960  10305.462204
    6777.9430  604744.440000  74874.917572  10767.172863
    6783.4760  607883.370000  75790.430495  10937.421100
    6789.0180  609144.810000  76450.465606  11064.192829
    6794.5690  610084.750000  77089.946921  11192.488481
    6800.2280  607351.250000  77259.994748  11244.321990
    6805.7990  574494.250000  73539.603816  10733.686730
    6811.4770  630168.810000  81270.633186  11893.579728
    6817.0670  625444.870000  81219.241918  11920.995682
    6822.7650  619560.440000  81024.312087  11926.946582
    6828.4730  618578.500000  81453.972307  12015.423351
    6834.1900  619465.120000  82109.062662  12143.431375
    6839.9180  620428.250000  82811.750486  12276.967739
    6845.6560  622540.870000  83695.840490  12441.022529
    6851.4050  624021.000000  84461.517941  12582.626606
    6857.1630  625801.690000  85322.784734  12743.757346
    6863.0310  627609.940000  86178.425218  12899.400776
    6868.8100  629414.620000  87058.665964  13063.593156
    6874.6980  630835.870000  87876.350442  13225.300740
    6880.4980  632249.620000  88701.631670  13383.549246
    6886.4070  633864.940000  89558.397931  13544.315017
    6892.3270  636504.690000  90560.649493  13729.623345
    6898.2580  637516.060000  91337.411563  13890.448822
    6904.2000  639062.870000  92220.720321  14065.807294
    6910.1520  640448.250000  93080.463855  14229.685659
    6916.1150  642152.120000  93980.867344  14406.107126
    6922.0890  642648.500000  94698.666470  14559.051821
    6928.1750  643584.440000  95525.978657  14726.524246
    6934.1710  645470.870000  96483.892900  14915.531930
    6940.2790  645706.810000  97198.234359  15072.057702
    6946.2960  646380.310000  97959.100109  15228.124980
    6952.4280  647245.310000  98777.552010  15398.719746
    6958.5690  649565.810000  99811.474841  15601.844666
    6964.6200  651654.810000  100828.896806  15795.482623
    6970.7850  652807.370000  101734.867755  15972.669308
    6976.9600  654230.440000  102658.263726  16159.379323
    6983.1470  655845.060000  103622.197869  16347.607756
    6989.3470  656649.190000  104453.700781  16524.380865
    6995.6610  658365.810000  105452.721929  16723.680668
    7001.8820  660702.940000  106548.292050  16936.504616
    7008.1160  659584.620000  107067.264084  17067.861885
    7014.4650  659823.810000  107842.825194  17235.735000
    7020.7220  661321.500000  108804.871243  17435.146903
    7027.0960  661200.750000  109548.404329  17594.097918
    7033.3760  665118.500000  110913.455860  17860.565185
    7039.7740  671299.750000  112679.077777  18192.560714
    7046.1830  675718.560000  114203.238846  18486.110346
    7052.6040  679774.870000  115652.808149  18773.150231
    7059.0390  681712.690000  116761.955447  19004.737561
    7065.4840  683629.000000  117895.586528  19229.861799
    7071.9420  684780.870000  118910.711658  19445.504053
    7078.4130  685975.250000  119943.469988  19651.694100
    7084.8960  687010.190000  120935.594221  19876.380648
    7091.3910  688489.620000  122029.307562  20107.627924
    7097.8990  688780.560000  122889.518693  20300.382530
    7104.5260  689356.000000  123864.203003  20514.661557
    7111.0590  689525.000000  124739.548896  20712.511847

