# XDI/1.0
# Column.1: energy eV
# Column.2: i0
# Column.3: itrans
# Column.4: irefer
# Beamline.name: SSRL 2-3
# Beamline.notes: vert slits = 0.6mm
# Detector.I0: N2 15cm
# Detector.I1: N2 30cm
# Detector.I2: N2 15cm
# Element.edge: K
# Element.symbol: Cr
# Mono.d_spacing: 3.13550
# Mono.name: Si(111)
# Mono.notes: unfocused, detuned 75%, clockwise at E=5990eV
# Sample.formula: Cr2S3
# Sample.name: Cr2S3
# Sample.prep: powder on tape (4 layers)
# Sample.reference: Cr foil
# Sample.temperature: 15K
# Scan.start_time: 1997-04-18 16:16:50
# ///
#    Note: mono d_spacing is nominal!
#     exafs to K16
#     396  E XMU XMUR I0
#-------------
#   energy   i0   itrans  irefer
    5759.9890  228549.800000  9104.703332  1166.300916
    5769.9800  228419.800000  9290.702455  1197.300170
    5780.0070  228685.800000  9495.699473  1231.299369
    5790.0030  228168.800000  9669.704068  1262.300318
    5799.9650  228188.800000  9863.700046  1295.300036
    5810.0340  227977.800000  10062.697358  1328.299106
    5820.0000  227757.800000  10254.696376  1361.299535
    5830.0020  227490.800000  10451.701603  1398.300818
    5839.9710  227145.800000  10649.704039  1432.300800
    5849.9750  226858.800000  10850.702208  1469.301029
    5860.0160  226376.800000  11037.702006  1504.300292
    5870.0220  225880.800000  11233.702667  1539.301014
    5879.9930  225598.800000  11439.705018  1576.301374
    5890.0000  225333.800000  11651.697277  1615.300259
    5899.9710  225186.800000  11862.703041  1652.300039
    5909.9780  224778.800000  12078.702859  1694.300223
    5920.0210  224300.800000  12286.695474  1733.299830
    5930.0260  224043.800000  12501.699167  1774.299272
    5939.9950  223218.800000  12685.701034  1809.300771
    5949.9990  222438.800000  12869.703813  1845.300261
    5959.9650  222077.800000  13078.697623  1884.298816
    5969.9670  221695.800000  13285.698713  1922.299589
    5970.4870  220100.800000  13203.693793  1909.299886
    5971.0060  217055.800000  13028.698006  1886.300424
    5971.5260  216603.800000  13013.702987  1885.299847
    5971.9720  215563.800000  12964.695357  1876.298441
    5972.4920  214421.800000  12901.700226  1867.299189
    5973.0120  215126.800000  12951.694406  1875.299953
    5973.5320  217198.800000  13086.694973  1895.299859
    5973.9780  218296.800000  13159.706257  1907.301860
    5974.4980  218841.800000  13207.701341  1914.300141
    5975.0190  219328.800000  13243.700081  1920.299136
    5975.4640  219311.800000  13253.696061  1920.300072
    5975.9850  219373.800000  13269.698453  1924.299728
    5976.5060  219240.800000  13270.700950  1925.299749
    5977.0260  219411.800000  13293.701205  1927.300520
    5977.4730  219513.800000  13309.700106  1930.299362
    5977.9940  219420.800000  13318.703791  1931.299992
    5978.5150  219479.800000  13325.695995  1934.299414
    5979.0370  219548.800000  13343.702241  1937.300543
    5979.4830  219688.800000  13362.696739  1939.299838
    5980.0050  219884.800000  13386.701286  1941.299847
    5980.5260  219754.800000  13383.697734  1940.299571
    5980.9730  219710.800000  13392.704737  1943.301122
    5981.4950  219807.800000  13404.701829  1944.300997
    5982.0160  219758.800000  13411.701622  1946.300870
    5982.4630  219864.800000  13425.700422  1947.300028
    5982.9860  219732.800000  13428.700740  1948.300127
    5983.5070  219941.800000  13447.698362  1952.299612
    5984.0300  220116.800000  13468.697839  1953.300126
    5984.4770  219923.800000  13463.699296  1954.300097
    5984.9990  219616.800000  13453.700650  1950.300005
    5985.5210  218995.800000  13415.698506  1945.300671
    5985.9700  216686.800000  13281.697942  1924.299476
    5986.4920  210279.800000  12892.696972  1867.299043
    5987.0150  197556.800000  12115.700069  1755.300624
    5987.4630  189835.800000  11641.700096  1685.299829
    5987.9860  196880.800000  12075.703630  1745.300015
    5988.5090  206302.800000  12655.703618  1823.299902
    5989.0320  211445.800000  12964.705463  1860.299881
    5989.4800  214153.800000  13113.699518  1869.300784
    5990.0030  215779.800000  13174.701574  1847.300609
    5990.5260  216619.800000  13143.702455  1795.301085
    5990.9750  216691.800000  13040.697802  1732.300108
    5991.4990  217057.800000  12910.703261  1673.299921
    5992.0210  217421.800000  12779.703465  1623.300213
    5992.4710  217590.800000  12675.705830  1584.300896
    5992.9950  217228.800000  12569.700251  1548.299413
    5993.5180  217493.800000  12550.698788  1523.300473
    5993.9670  217654.800000  12559.700579  1507.300529
    5994.4920  217619.800000  12569.704368  1492.299925
    5995.0160  217510.800000  12541.705170  1477.300601
    5995.4650  217500.800000  12485.694247  1466.298985
    5995.9890  217590.800000  12328.704401  1442.300250
    5996.5140  217421.800000  11945.698383  1397.299221
    5996.9630  217318.800000  11418.700428  1335.300553
    5997.4880  217555.800000  10617.699464  1241.300188
    5998.0120  217730.800000  9752.702610  1136.300077
    5998.5380  217489.800000  9009.701605  1038.300200
    5998.9870  217512.800000  8527.700092   971.299609
    5999.5130  217453.800000  8065.699287   899.300009
    6000.0370  217409.800000  7743.703425   845.300623
    6000.4870  216824.800000  7579.700251   813.299909
    6001.0130  216023.800000  7545.697904   791.299765
    6001.4620  214587.800000  7582.697284   784.299731
    6001.9880  213565.800000  7732.699163   785.299568
    6002.5130  214747.800000  8002.702654   801.300149
    6002.9640  216278.800000  8252.699147   816.299723
    6003.4900  216985.800000  8454.703499   826.300239
    6004.0160  217061.800000  8560.701225   827.299999
    6004.4660  217226.800000  8573.696493   819.299943
    6004.9930  217092.800000  8493.701696   804.299885
    6005.5180  216909.800000  8350.701931   783.300089
    6005.9700  216850.800000  8214.702688   764.300349
    6006.4960  216873.800000  8066.701136   744.299789
    6007.0220  216898.800000  7935.702527   726.300008
    6007.4730  216841.800000  7841.703198   711.300037
    6008.0000  216708.800000  7741.701665   695.300270
    6008.5260  216798.800000  7656.697343   681.299507
    6008.9780  216952.800000  7601.699330   671.299977
    6009.5040  217171.800000  7547.698976   659.300236
    6010.0320  216949.800000  7477.697998   648.299817
    6010.9360  217215.560000  7371.455854   631.064139
    6011.8390  217169.840000  7249.726327   624.358048
    6012.8180  216982.640000  7162.509084   630.180716
    6013.7980  216733.950000  7151.810665   644.534173
    6014.7780  216844.800000  7210.619647   664.415143
    6015.7580  216677.160000  7274.946825   677.826112
    6016.8150  216811.030000  7333.780533   681.764591
    6017.7960  216494.420000  7334.137175   678.234469
    6018.9290  217012.340000  7333.003734   668.233389
    6019.9860  217522.780000  7341.378127   662.759951
    6021.1200  217976.730000  7365.274455   662.817437
    6022.1770  216276.200000  7328.679096   660.401890
    6023.3880  216043.200000  7348.596831   663.517791
    6024.5220  216438.720000  7412.030763   674.161528
    6025.7330  216734.750000  7501.982025   684.334980
    6026.8690  217420.300000  7628.439834   693.037857
    6028.1570  217348.370000  7765.419332   696.270154
    6029.3690  218253.970000  7904.904461   705.030923
    6030.5820  218786.080000  8010.902679   710.320820
    6031.8720  219717.700000  8151.423223   718.141640
    6033.1610  219900.860000  8305.449025   731.489662
    6034.5280  220868.530000  8531.990077   748.366564
    6035.8190  221789.720000  8729.051589   765.773937
    6037.1870  222719.420000  8888.619699   778.711049
    6038.5550  223086.660000  8957.698282   783.176108
    6040.0000  224049.410000  9010.302167   782.171391
    6041.3700  224675.670000  9015.406035   780.694708
    6042.8160  225374.450000  8998.035189   781.748064
    6044.2640  226252.770000  8992.166645   785.330858
    6045.7120  226816.590000  8998.822337   789.442497
    6047.2370  227681.940000  9012.988062   793.083041
    6048.7630  228385.800000  8988.664686   795.252428
    6050.2890  229140.190000  8941.854442   795.952315
    6051.8160  229945.090000  8895.562361   800.180895
    6053.4220  230649.520000  8877.778253   806.937815
    6054.9510  231262.450000  8866.509601   813.224730
    6056.5570  231736.920000  8847.763920   822.041633
    6058.2410  232350.910000  8816.524741   826.386061
    6059.8490  232908.410000  8771.793471   827.259611
    6061.5350  233205.420000  8735.583102   826.664538
    6063.2220  233753.970000  8729.884609   828.597432
    6064.9100  234093.030000  8733.695585   826.058736
    6066.6760  234979.610000  8779.019652   823.049236
    6068.3650  235851.700000  8847.865272   821.570290
    6070.1330  236758.330000  8932.219571   820.620856
    6071.9020  237789.470000  8985.091487   814.199141
    6073.7490  238574.120000  9009.477130   812.306975
    6075.5210  239443.300000  9076.372838   822.944634
    6077.3690  240234.000000  9225.777317   845.110787
    6079.2200  241060.220000  9439.705454   876.807138
    6081.1490  242143.950000  9703.138443   917.031353
    6083.0020  243089.200000  9935.085224   952.785437
    6084.9340  243872.980000  10142.550711   986.068471
    6086.8660  244623.280000  10329.525982  1008.880595
    6088.8000  245742.090000  10509.016168  1021.222635
    6090.8130  246463.420000  10654.023187  1019.093580
    6092.8270  247613.280000  10781.548214  1009.493959
    6094.8430  248722.660000  10880.579038   994.423070
    6096.8590  249580.550000  10939.123870   980.881824
    6098.8780  250541.950000  10982.184529   969.870590
    6100.9750  251550.890000  11030.755379   962.386940
    6103.0750  252696.340000  11074.836255   969.432462
    6105.1750  254029.310000  11129.437824   988.008137
    6107.2770  255262.810000  11178.559820  1014.112293
    6109.4590  256127.810000  11178.179038  1039.746130
    6111.6430  257545.340000  11156.327015  1060.909737
    6113.8270  258383.390000  11096.974345  1071.600676
    6116.0130  259512.970000  11055.142254  1079.821427
    6118.2800  260782.050000  11059.823096  1083.573094
    6120.4700  262009.660000  11087.023532  1083.853096
    6122.7400  263181.780000  11139.729720  1087.661493
    6125.0110  264439.440000  11255.954357  1096.000084
    6127.3630  265904.590000  11415.688120  1115.867981
    6129.6390  267179.280000  11588.936509  1139.263378
    6131.9950  268452.500000  11782.707488  1166.189959
    6134.3520  269765.220000  11952.984847  1191.645381
    6136.7900  270877.470000  12095.767263  1208.628902
    6139.1510  272353.220000  12242.075464  1222.142941
    6141.5940  273776.500000  12409.894278  1236.185069
    6144.0380  275029.310000  12578.219082  1252.756939
    6146.4840  276428.620000  12757.070056  1266.857763
    6148.9320  277869.470000  12922.428836  1275.488792
    6151.4620  279389.840000  13075.301677  1283.648075
    6153.9940  280497.720000  13200.683342  1291.336330
    6156.5280  281915.120000  13341.587451  1304.555060
    6159.0640  283542.030000  13487.001451  1312.302681
    6161.6030  284934.470000  13614.919643  1314.577372
    6164.2220  286419.440000  13763.364420  1311.383006
    6166.8440  288007.910000  13905.312273  1319.717825
    6169.4700  289686.910000  14039.779861  1336.582147
    6172.0960  291397.440000  14213.768515  1366.974780
    6174.8060  292796.470000  14439.257695  1407.896471
    6177.5170  294540.030000  14715.272781  1458.348920
    6180.2310  296071.090000  14947.791967  1496.328730
    6182.9480  297373.690000  15101.824486  1527.839374
    6185.6670  298820.810000  15186.366675  1544.876692
    6188.4690  300664.440000  15261.431451  1557.446818
    6191.2730  302187.590000  15310.011847  1565.543399
    6194.0810  303921.280000  15381.103653  1580.170449
    6196.8910  305632.470000  15471.711650  1593.327030
    6199.7030  307288.190000  15582.820180  1609.011535
    6202.5990  309035.410000  15718.445036  1631.225978
    6205.4980  310942.160000  15885.598025  1652.970404
    6208.3990  312653.440000  16055.257350  1679.243437
    6211.3040  314350.220000  16217.432026  1709.044965
    6214.2100  316126.530000  16387.101719  1734.375740
    6217.2020  317957.370000  16590.302156  1763.235224
    6220.1960  319861.720000  16798.015886  1780.623845
    6223.1930  321428.590000  17007.244561  1794.543019
    6226.1930  323190.970000  17246.985712  1812.991760
    6229.1960  325011.870000  17490.234642  1826.969722
    6232.2840  326715.310000  17730.001064  1841.477392
    6235.3750  327150.250000  17901.285851  1846.512169
    6238.4690  331691.720000  18290.082688  1875.075609
    6241.5650  324091.720000  17990.387044  1837.170401
    6244.7480  333421.220000  18626.207895  1900.793852
    6247.8520  335912.250000  18885.547842  1932.947355
    6251.0410  338193.780000  19157.399633  1975.629427
    6254.2330  340164.840000  19440.748933  2032.838970
    6257.4290  342052.440000  19732.619107  2093.579036
    6260.7100  344187.530000  20018.015722  2146.847859
    6263.9130  345918.160000  20250.919811  2182.646683
    6267.2020  348143.310000  20496.337371  2213.974254
    6270.4940  349809.970000  20684.260820  2238.831469
    6273.7900  351741.160000  20852.702668  2266.216190
    6277.1720  353893.840000  21011.669653  2289.132629
    6280.4750  356157.090000  21170.144219  2314.576880
    6283.8650  358174.810000  21298.127612  2333.551050
    6287.2580  360309.090000  21489.624697  2356.054143
    6290.6550  362245.840000  21720.621251  2386.085358
    6294.0560  364255.160000  21983.157920  2422.646678
    6297.5440  366420.970000  22271.188858  2464.736398
    6300.9540  368994.310000  22567.734831  2509.356194
    6304.4500  370975.190000  22815.797916  2544.505140
    6307.9500  373230.560000  23062.394609  2578.186776
    6311.5380  375220.440000  23330.480772  2610.392761
    6315.0470  377470.870000  23634.095645  2647.128321
    6318.5600  379938.810000  23963.197440  2678.393604
    6322.1610  382200.250000  24284.849679  2708.187754
    6325.7660  384175.220000  24581.982370  2737.512744
    6329.3750  386529.720000  24919.652776  2773.366043
    6333.0730  388819.750000  25258.831795  2811.749447
    6336.6910  390818.280000  25564.500628  2847.660258
    6340.3970  392920.310000  25880.707779  2891.102212
    6344.1090  395232.910000  26194.441629  2934.072051
    6347.8260  397457.000000  26473.646120  2976.570361
    6351.5460  399425.590000  26718.400625  3019.600356
    6355.2710  401276.720000  26978.662185  3057.159644
    6359.0850  403317.370000  27280.434783  3107.245898
    6362.8190  406039.560000  27672.706244  3166.860103
    6366.6450  408627.250000  28087.520610  3237.007757
    6370.4730  410641.440000  28467.822802  3295.682983
    6374.3070  412954.190000  28847.653833  3351.884305
    6378.2300  415135.440000  29215.980251  3398.617830
    6382.0750  417454.190000  29564.839890  3444.882559
    6386.0090  419640.500000  29890.191777  3490.672435
    6389.9480  421890.280000  30215.084313  3533.992601
    6393.8930  423795.620000  30498.463665  3577.840159
    6397.8420  426509.470000  30854.375467  3627.220203
    6401.8820  428742.840000  31175.804546  3672.131555
    6405.8430  431314.720000  31522.735029  3717.565552
    6409.8940  433495.120000  31833.160801  3758.532313
    6413.9500  435633.030000  32151.117680  3809.028671
    6418.0130  438306.500000  32516.590543  3868.053610
    6422.0810  440229.440000  32855.594852  3913.609311
    6426.1530  442564.940000  33224.089852  3968.690577
    6430.3180  444688.940000  33604.098090  4020.302009
    6434.4020  447049.470000  34041.632459  4072.443792
    6438.5790  449212.500000  34486.676110  4126.118150
    6442.7610  451605.060000  34953.235406  4185.319465
    6446.9490  453848.120000  35366.307615  4247.049917
    6451.2300  456365.750000  35820.865949  4318.303304
    6455.4300  458768.840000  36275.967390  4392.091190
    6459.7230  460959.500000  36740.591771  4465.410675
    6463.9340  463295.660000  37212.712054  4540.256121
    6468.2390  465423.340000  37655.363465  4612.635566
    6472.5500  467856.530000  38105.502302  4677.536999
    6476.9550  470226.250000  38571.164432  4747.973815
    6481.2780  472543.500000  39047.341953  4819.936753
    6485.6070  474989.250000  39518.035878  4895.425375
    6490.0310  477379.530000  39992.255981  4966.452661
    6494.4610  479424.310000  40417.951484  5031.001300
    6498.8980  481937.620000  40892.173452  5096.080356
    6503.3410  484161.470000  41335.945263  5159.689828
    6507.7900  486581.810000  41758.208712  5228.827407
    6512.3350  488754.690000  42160.961382  5296.491960
    6516.7970  491257.090000  42646.260685  5378.694010
    6521.3550  493554.000000  43134.074456  5457.420681
    6525.9200  495805.440000  43614.366009  5539.673653
    6530.4920  498062.370000  44096.186736  5615.458888
    6535.0690  500465.840000  44596.542994  5694.770768
    6539.6550  502606.840000  45105.411772  5769.614310
    6544.2470  504409.340000  45570.752626  5842.986896
    6548.9360  506518.370000  46070.627136  5914.888173
    6553.5410  508122.940000  46520.051103  5982.319842
    6558.2440  511063.000000  47115.963446  6070.280836
    6562.9540  513108.590000  47637.368186  6150.765214
    6567.6710  515455.690000  48212.308155  6244.782683
    6572.3950  517921.310000  48827.775427  6340.333183
    6577.2180  520172.470000  49424.706446  6430.404404
    6581.9560  522499.120000  50002.214759  6526.013714
    6586.7920  524656.310000  50558.162216  6623.145450
    6591.5460  526891.000000  51090.710804  6713.817365
    6596.3970  528952.250000  51616.694818  6803.003209
    6601.2570  531094.000000  52139.250313  6886.727649
    6606.1250  533517.250000  52721.292377  6980.980669
    6611.0910  535637.060000  53326.841904  7073.757465
    6615.9730  537637.370000  53885.924319  7168.068984
    6620.9550  539845.190000  54486.524449  7263.911176
    6625.8530  542216.500000  55107.585148  7368.280499
    6630.8500  544554.370000  55724.214907  7467.175315
    6635.8550  546759.750000  56322.353110  7569.602015
    6640.8690  548916.690000  56922.954688  7672.555042
    6645.8910  551174.060000  57539.154140  7780.049165
    6650.9190  552977.000000  58097.777455  7876.057090
    6655.9570  555295.500000  58716.008361  7981.604086
    6661.0960  557593.440000  59377.661978  8092.673083
    6666.1500  559901.940000  60022.870300  8201.275256
    6671.3050  561733.000000  60607.621230  8305.414471
    6676.4690  563932.500000  61245.817629  8411.068891
    6681.6420  565821.560000  61840.578776  8506.254900
    6686.8220  567508.120000  62419.832763  8597.977985
    6692.0110  568202.250000  62901.652127  8683.228698
    6697.3030  567850.870000  63277.943938  8756.005707
    6702.5090  545944.000000  61277.725387  8504.312658
    6707.7240  590262.620000  66679.033055  9272.143258
    6713.0420  584660.810000  66504.849320  9268.512169
    6718.3690  584707.500000  66966.180426  9357.402321
    6723.7050  585927.750000  67558.067577  9462.829960
    6729.0490  586672.440000  68117.464923  9563.785679
    6734.4030  586961.690000  68659.297311  9663.255055
    6739.7660  593305.500000  69909.702385  9872.276185
    6745.1370  592155.750000  70280.662616  9953.822930
    6750.6140  578090.560000  69074.078807  9813.888091
    6756.0030  583804.940000  70301.976960  10010.483764
    6761.4980  588099.750000  71327.473542  10180.616573
    6766.9060  602138.120000  73495.402571  10524.268271
    6772.4200  587708.000000  72258.879993  10376.454260
    6777.9430  607643.440000  75222.866653  10826.169041
    6783.4760  608743.370000  75897.426940  10950.419688
    6789.0180  609256.810000  76466.433757  11060.186628
    6794.5690  609251.750000  76970.987481  11162.495744
    6800.2280  606519.250000  77142.045363  11220.331750
    6805.7990  573837.250000  73457.559636  10718.688637
    6811.4770  627888.810000  80964.687000  11843.581753
    6817.0670  625047.870000  81157.218195  11896.999659
    6822.7650  624919.440000  81706.351896  12011.947091
    6828.4730  626462.500000  82479.923829  12156.413811
    6834.1900  627371.120000  83167.052306  12279.427038
    6839.9180  629339.250000  83987.708393  12440.962547
    6845.6560  630842.870000  84796.885463  12594.041611
    6851.4050  632112.000000  85569.558392  12740.623555
    6857.1630  634111.690000  86468.752519  12903.751798
    6863.0310  635483.940000  87267.474242  13058.415853
    6868.8100  637090.620000  88124.616209  13224.589083
    6874.6980  639061.870000  89021.353939  13399.297401
    6880.4980  641169.620000  89947.578516  13579.537168
    6886.4070  642660.940000  90798.364713  13740.315871
    6892.3270  644291.690000  91669.668739  13913.624756
    6898.2580  645802.060000  92535.379101  14078.432947
    6904.2000  647399.870000  93426.697110  14252.796609
    6910.1520  648512.250000  94248.498326  14416.680343
    6916.1150  650220.120000  95164.783460  14591.102888
    6922.0890  650155.500000  95842.628992  14728.045968
    6928.1750  651638.440000  96739.990407  14917.527565
    6934.1710  653020.870000  97605.914303  15098.540582
    6940.2790  654029.810000  98454.245883  15265.065720
    6946.2960  655355.310000  99344.096558  15451.120834
    6952.4280  656350.310000  100163.580604  15620.726521
    6958.5690  657706.810000  101084.444787  15802.833423
    6964.6200  659885.810000  102119.919583  16004.497955
    6970.7850  660786.370000  102939.825131  16178.668180
    6976.9600  662163.440000  103888.313526  16366.382995
    6983.1470  664094.060000  104930.245001  16577.606789
    6989.3470  665056.190000  105799.684071  16761.364961
    6995.6610  666156.810000  106719.734386  16954.683245
    7001.8820  667643.940000  107673.231618  17148.505166
    7008.1160  669183.620000  108632.268151  17338.847283
    7014.4650  670407.810000  109595.816028  17537.741202
    7020.7220  671361.500000  110480.798877  17714.149731
    7027.0960  672760.750000  111457.434948  17912.087579
    7033.3760  673972.500000  112418.476868  18114.564965
    7039.7740  675278.750000  113395.144009  18316.578315
    7046.1830  675636.560000  114217.245629  18495.108622
    7052.6040  677041.870000  115227.809079  18707.155868
    7059.0390  677788.690000  116155.936982  18913.738688
    7065.4840  678732.000000  117100.594981  19114.865897
    7071.9420  680227.870000  118174.795356  19345.519552
    7078.4130  681579.250000  119215.470463  19562.696872
    7084.8960  682077.190000  120135.567377  19759.390234
    7091.3910  683520.620000  121191.364847  19986.635475
    7097.8990  683471.560000  122000.488148  20177.377396
    7104.5260  684591.000000  123043.208173  20397.667981
    7111.0590  685057.000000  123952.452747  20605.500330

