# XDI/1.0
# Column.1: energy eV
# Column.2: i0
# Column.3: itrans
# Beamline.name: SSRL 4-1
# Detector.I0: N2 15cm
# Detector.I1: N2 30cm
# Detector.I2: N2 15cm
# Element.edge: K
# Element.symbol: Cr
# Mono.d_spacing: 3.13550
# Mono.name: Si(111)
# Mono.notes: unfocused, detuned 30%,counter clockwise at E=6200eV
# Sample.formula: Cr2S3
# Sample.name: Cr2S3 chromium sesquisulfide
# Sample.prep: powder, mixed 1:50 with B(OH)3 by wt
# Sample.reference: none
# Sample.temperature: room temperature
# Scan.start_time: 1997-01-20 15:45:55
# ///
#    Note: mono d_spacing is nominal!
#     exafs to K15
#     381  E XMU I0
#-------------
#   energy   i0   itrans
    5788.9990  249607.410000  144542.592738
    5799.6250  250244.410000  149487.590139
    5810.2500  250964.410000  154674.597046
    5820.8750  251510.410000  159901.592691
    5831.4990  251898.410000  165173.604838
    5842.1250  252522.410000  170781.591467
    5852.7490  253033.410000  176426.601674
    5863.3740  252994.410000  181811.601370
    5874.0000  253643.410000  187867.604431
    5884.6250  253981.410000  193888.601558
    5895.2500  254202.410000  199972.596455
    5905.8750  254402.410000  206113.606511
    5916.5000  254351.410000  212237.602756
    5927.1240  254632.410000  218808.600146
    5937.7490  255217.410000  225823.601495
    5948.3750  255445.410000  232557.597917
    5959.0020  255519.410000  239377.598552
    5959.7580  255531.410000  239843.598384
    5960.5160  255140.410000  239936.597431
    5961.2730  255646.410000  240907.597906
    5962.0310  255602.410000  241375.598733
    5962.7890  255495.410000  241765.598304
    5963.5440  255983.410000  242709.597751
    5964.3030  255832.410000  243063.598584
    5965.0620  255619.410000  243305.598105
    5965.8170  255752.410000  243918.598774
    5966.5760  255631.410000  244319.597069
    5967.3330  255764.410000  244934.597844
    5968.0920  255483.410000  245104.597015
    5968.8480  255617.410000  245742.596990
    5969.6050  255810.410000  246432.599032
    5970.3650  255543.410000  246638.597556
    5971.1200  255973.410000  247523.597747
    5971.8800  255584.410000  247518.599060
    5972.6380  254500.410000  246971.596723
    5973.3920  253252.410000  246289.597553
    5974.1500  253174.410000  246887.599132
    5974.9090  253811.410000  248175.597718
    5975.6670  253620.410000  248371.597168
    5976.4230  253158.410000  248100.597569
    5977.1820  254183.410000  249435.596860
    5977.9410  255087.410000  250870.598090
    5978.6970  255342.410000  251638.596870
    5979.4530  255720.410000  252436.597762
    5980.2100  255861.410000  253049.598420
    5980.9700  255825.410000  253481.597987
    5981.7280  255902.410000  253981.598073
    5982.4850  255333.410000  253855.597947
    5983.2420  254991.410000  253884.598031
    5984.0000  251743.410000  251137.598092
    5984.7570  241041.410000  240904.597990
    5985.5160  232801.410000  232795.597999
    5986.2740  242634.410000  242498.597988
    5987.0300  250324.410000  250314.597999
    5987.7890  252643.410000  252505.598004
    5988.5440  254046.410000  252448.598038
    5989.3040  254623.410000  250767.599057
    5990.0600  254963.410000  248617.597921
    5990.8200  255198.410000  247037.597352
    5991.5760  255544.410000  246720.597115
    5992.3330  255786.410000  246872.599062
    5993.0900  255089.410000  245236.598118
    5993.8480  254008.410000  240899.596995
    5994.6050  251924.410000  230728.598656
    5995.3630  250911.410000  216585.595292
    5996.1220  250790.410000  202297.597947
    5996.8790  251631.410000  191592.602949
    5997.6350  253187.410000  185220.603402
    5998.3940  254691.410000  182922.589557
    5999.1530  255084.410000  183391.591334
    5999.9090  255170.410000  186275.599813
    6000.6670  255559.410000  190209.597157
    6001.4240  255210.410000  192720.594324
    6002.1810  255346.410000  193894.596395
    6002.9400  255442.410000  192829.597242
    6003.6970  255571.410000  190592.599254
    6004.4550  255534.410000  188202.587867
    6005.2120  255631.410000  186361.605560
    6005.9700  255414.410000  184563.589624
    6006.7270  255435.410000  183328.601505
    6007.4860  255332.410000  182190.595088
    6008.2400  255818.410000  181545.599097
    6009.0000  255593.410000  180276.600289
    6009.0120  255608.390000  180259.602268
    6009.0390  255627.370000  180203.559521
    6009.0860  255668.360000  180215.532235
    6009.1550  255442.330000  179971.493676
    6009.2400  255720.280000  180056.410029
    6009.3480  255792.230000  179980.320326
    6009.4720  256015.190000  179972.233140
    6009.6160  256028.110000  179833.126005
    6009.7820  255900.050000  179555.982325
    6009.9660  256189.950000  179642.840725
    6010.1670  256213.860000  179493.695789
    6010.3900  256351.770000  179502.512102
    6010.6310  256466.640000  179515.328114
    6010.8930  256668.530000  179628.132956
    6011.1700  257011.410000  179950.908079
    6011.4710  256762.270000  179869.670767
    6011.7910  257169.110000  180398.444315
    6012.1290  257506.950000  180941.162622
    6012.4840  257646.800000  181353.897075
    6012.8610  258128.620000  182111.582128
    6013.2550  258021.440000  182503.286713
    6013.6710  258525.250000  183241.960509
    6014.1050  258776.050000  183820.624605
    6014.5610  259129.840000  184363.278129
    6015.0350  259559.620000  184988.900455
    6015.5270  259712.390000  185265.536133
    6016.0370  259688.160000  185348.127412
    6016.5680  260232.910000  185868.723652
    6017.1170  260800.660000  186422.287032
    6017.6880  261176.390000  186863.836172
    6018.2760  261424.120000  187360.387735
    6018.8830  261630.840000  187867.908692
    6019.5120  262037.550000  188539.420831
    6020.1580  262480.250000  189310.919686
    6020.8260  262552.940000  189792.398987
    6021.5090  262977.620000  190601.875948
    6022.2140  263879.310000  191900.333237
    6022.9400  264163.970000  192988.752273
    6023.6850  264679.620000  194256.162523
    6024.4440  264864.280000  195501.596151
    6025.2270  265521.910000  197347.978892
    6026.0270  266122.560000  199099.351627
    6026.8520  266586.160000  200843.720044
    6027.6900  267182.780000  202540.059866
    6028.5480  267633.370000  204201.391790
    6029.4270  268139.970000  206072.720842
    6030.3240  268849.560000  208396.010590
    6031.2400  269235.160000  210658.301886
    6032.1780  269829.720000  213155.573981
    6033.1350  270247.280000  215398.821117
    6034.1090  270957.810000  217626.050699
    6035.1020  271492.370000  219327.300256
    6036.1160  272200.910000  220823.520634
    6037.1470  272858.440000  221934.706978
    6038.2020  273570.940000  222886.899720
    6039.2730  274309.440000  223617.054834
    6040.3620  274611.940000  223789.208163
    6041.4730  275391.440000  224430.347686
    6042.6040  276110.910000  225087.481392
    6043.7520  277020.370000  226040.557557
    6044.9190  277401.840000  226374.643386
    6046.1080  278212.280000  226889.727933
    6047.3130  278777.750000  227069.802313
    6048.5400  279656.160000  227277.843353
    6049.7860  280664.590000  227796.873577
    6051.0500  281468.000000  228324.888534
    6052.3330  281522.440000  228438.895818
    6053.6350  282555.810000  229219.873362
    6054.9590  283452.220000  229834.842020
    6056.3000  284058.590000  230058.820999
    6057.6630  284714.970000  230303.746491
    6059.0440  285315.340000  230658.676002
    6060.4440  285910.690000  231332.597113
    6061.8600  286269.030000  232019.479849
    6063.2990  287447.370000  233607.365911
    6064.7570  288232.690000  235140.240752
    6066.2340  289076.000000  236894.081875
    6067.7290  290105.310000  238901.920922
    6069.2450  291010.620000  240747.739530
    6070.7830  291815.910000  242259.546650
    6072.3360  292662.190000  244159.331155
    6073.9100  293648.470000  246848.100982
    6075.5020  294437.750000  250035.874492
    6077.1140  295449.000000  253696.617317
    6078.7450  296505.250000  257684.334171
    6080.3960  297182.500000  261174.072172
    6082.0660  298366.720000  264888.778460
    6083.7560  299658.940000  268512.444543
    6085.4650  300517.160000  271537.121419
    6087.1910  301693.340000  274723.778487
    6088.9400  302653.560000  277400.404214
    6090.7050  303850.720000  280098.032557
    6092.4890  304533.910000  281924.660484
    6094.2960  305771.060000  284169.247341
    6096.1210  306839.250000  286132.844666
    6097.9650  307856.370000  287964.400476
    6099.8260  309104.530000  290091.936305
    6101.7090  310373.660000  292155.503416
    6103.6130  311103.780000  293663.999303
    6105.5330  312644.910000  295729.502525
    6107.4740  313714.000000  297057.999078
    6109.4310  314526.090000  297878.465604
    6111.4120  316312.190000  299608.939385
    6113.4090  317121.280000  300616.374170
    6115.4260  318120.340000  302063.807711
    6117.4640  319713.410000  304305.223007
    6119.5190  320977.440000  306505.625832
    6121.5970  321776.500000  308715.032098
    6123.6930  323251.530000  311956.373909
    6125.8050  324826.560000  315632.748157
    6127.9380  325546.560000  318630.091731
    6130.0910  326775.560000  322247.403503
    6132.2610  328391.560000  326119.715978
    6134.4530  329877.560000  329737.027993
    6136.6640  330894.530000  333110.311909
    6138.8930  332164.530000  336860.560765
    6141.1430  333634.470000  341030.812516
    6143.4140  334957.440000  345178.066609
    6145.7010  336206.370000  349084.274705
    6148.0070  337342.310000  352854.465010
    6150.3330  339099.250000  357146.655588
    6152.6800  340179.160000  360708.848834
    6155.0450  341441.060000  364457.997862
    6157.4280  342594.970000  368102.158380
    6159.8320  344656.870000  372647.276338
    6162.2560  345633.750000  376118.404127
    6164.6990  347467.620000  380485.493145
    6167.1600  348211.500000  383768.564310
    6169.6410  349603.340000  387973.639356
    6172.1410  351781.190000  393395.734402
    6174.6590  353087.030000  398145.760423
    6177.1980  354239.840000  402687.770183
    6179.7550  355931.690000  407377.767414
    6182.3340  357430.500000  411238.787652
    6184.9310  358818.280000  414734.757147
    6187.5470  360363.090000  418244.716130
    6190.1840  361838.870000  421727.639750
    6192.8400  362974.660000  424884.609358
    6195.5100  364855.410000  429235.550974
    6198.2050  366435.190000  433295.425251
    6200.9160  367930.940000  437511.310272
    6203.6480  369278.660000  441766.178944
    6206.4010  371387.410000  447160.079228
    6209.1700  372770.120000  451849.892928
    6211.9590  374561.840000  457063.721789
    6214.7710  376116.530000  462309.516355
    6217.5970  377284.250000  467322.352626
    6220.4460  379492.910000  473671.107197
    6223.3130  380795.590000  479270.914947
    6226.2000  382199.280000  485028.643508
    6229.1050  384209.940000  491617.424702
    6232.0310  386009.590000  497964.113765
    6234.9740  385590.220000  501494.830536
    6237.9380  386733.840000  507005.526782
    6240.9200  390516.470000  516148.205956
    6243.9220  384523.090000  512032.878684
    6246.9440  393697.720000  528589.483370
    6249.9840  395802.310000  535824.118145
    6253.0440  397252.910000  542314.738236
    6256.1250  398944.470000  549086.360518
    6259.2240  400577.030000  555665.937918
    6262.3390  402609.590000  562601.539858
    6265.4780  404365.160000  569166.113627
    6268.6340  406245.720000  575814.637037
    6271.8120  407782.250000  581785.213679
    6275.0070  409471.780000  587841.696263
    6278.2220  411249.280000  593998.177584
    6281.4540  413304.780000  600716.666679
    6284.7090  415077.280000  607526.150125
    6287.9810  416808.780000  614390.644997
    6291.2720  418597.280000  621572.036764
    6294.5840  420262.750000  628746.409532
    6297.9140  422322.220000  636552.869365
    6301.2630  423790.660000  643483.256256
    6304.6330  425906.120000  651592.617198
    6308.0210  427708.560000  659475.966216
    6311.4290  429598.970000  667741.381822
    6314.8540  431400.410000  676104.726126
    6318.3020  433522.810000  685227.988669
    6321.7650  435288.220000  693673.290292
    6325.2520  437765.590000  703538.628777
    6328.7570  439581.000000  712445.843752
    6332.2790  441203.370000  721199.087164
    6335.8220  443053.720000  730332.366281
    6339.3830  444194.090000  738296.648487
    6342.9650  446238.440000  747679.812365
    6346.5640  448322.780000  757268.033480
    6350.1860  449881.120000  766188.152968
    6353.8250  452305.440000  776752.373405
    6357.4850  454231.750000  786589.593632
    6361.1630  456429.060000  797311.695416
    6364.8590  458461.340000  807862.822288
    6368.5740  460274.620000  817878.924304
    6372.3100  462838.910000  829535.965701
    6376.0670  463968.190000  838480.054484
    6379.8400  466313.440000  849566.165827
    6383.6340  468345.690000  860202.199314
    6387.4470  469993.940000  870166.263624
    6391.2790  471697.160000  880263.213938
    6395.1320  474520.370000  892469.238620
    6399.0030  476382.590000  903124.205785
    6402.8920  477972.810000  913497.142769
    6406.8010  480249.000000  925149.197775
    6410.7320  481700.190000  935662.100979
    6414.6800  483254.370000  946515.040323
    6418.6460  485966.560000  959888.963689
    6422.6340  488494.720000  973151.878316
    6426.6390  490265.870000  985257.704406
    6430.6670  491982.000000  997459.583808
    6434.7080  493461.160000  1009545.443547
    6438.7740  495749.280000  1023381.291071
    6442.8590  497338.370000  1035829.070550
    6446.9600  499967.500000  1050688.031140
    6451.0830  501925.590000  1064370.774649
    6455.2240  503566.690000  1077489.477445
    6459.3830  505668.780000  1091945.197901
    6463.5620  508422.840000  1107724.027424
    6467.7610  509961.910000  1121071.761523
    6471.9830  511545.970000  1134673.535110
    6476.2180  514425.000000  1151297.069224
    6480.4770  516317.030000  1165923.873331
    6484.7510  518336.060000  1180870.546093
    6489.0470  519791.090000  1194555.204002
    6493.3630  522056.090000  1210277.842603
    6497.6980  524422.120000  1226395.468440
    6502.0500  526340.120000  1241675.082210
    6506.4220  528614.060000  1258001.589004
    6510.8160  531023.060000  1274826.216852
    6515.2290  532626.000000  1290060.879060
    6519.6600  534584.000000  1306293.314172
    6524.1070  536349.940000  1322219.867892
    6528.5810  538538.870000  1339403.542051
    6533.0690  541131.810000  1357993.050394
    6537.5760  543162.750000  1375326.448184
    6542.1030  544566.620000  1391338.880173
    6546.6480  546639.560000  1409227.337460
    6551.2140  548864.440000  1428027.912595
    6555.8010  550381.310000  1445174.173997
    6560.4060  552668.190000  1464600.815386
    6565.0290  554613.060000  1483427.075420
    6569.6720  556846.940000  1503338.542090
    6574.3340  558584.750000  1521829.262977
    6579.0180  561348.620000  1543773.678476
    6583.7180  562987.440000  1562595.217310
    6588.4380  564815.250000  1582064.132725
    6593.1790  566521.060000  1601562.918354
    6597.9370  568824.870000  1622972.463843
    6602.7150  571055.690000  1644498.470483
    6607.5150  572684.500000  1664729.545779
    6612.3320  575348.250000  1687842.743931
    6617.1680  577689.000000  1710506.255590
    6622.0220  579427.810000  1731539.337131
    6626.8960  581064.560000  1752474.151746
    6631.7920  583825.310000  1777316.304319
    6636.7060  585378.000000  1798342.690781
    6641.6390  586982.750000  1819760.963455
    6646.5910  589780.440000  1845536.558936
    6651.5620  590877.190000  1865624.624810
    6656.5510  592936.870000  1889347.734838
    6661.5640  594122.560000  1910590.485637
    6666.5920  596491.250000  1935714.082998
    6671.6400  598534.940000  1960170.822131
    6676.7100  599957.560000  1982932.164438
    6681.7950  602042.250000  2008158.928965
    6686.9010  603397.870000  2031372.184670
    6692.0300  605721.500000  2058276.599551
    6697.1750  606147.120000  2078847.076514
    6702.3380  606704.750000  2100089.546846
    6707.5220  604742.370000  2112350.384096
    6712.7270  590065.000000  2079341.841616
    6717.9460  609528.560000  2176507.497863
    6723.1900  625120.120000  2243565.955055
    6728.4500  624904.750000  2266493.580695
    6733.7300  624797.310000  2287615.512491
    6739.0300  615729.870000  2275411.842399
    6744.3500  630484.370000  2352435.292528
    6749.6870  624932.940000  2354414.482101
    6755.0440  639818.440000  2432980.793544
    6760.4220  634271.000000  2435144.332540
    6765.8160  631231.500000  2443216.464206
    6771.2360  639448.000000  2502176.680364
    6776.6670  638079.500000  2520674.702438
    6782.1240  630191.000000  2513468.493244
    6787.5980  618238.440000  2488599.069133
    6793.0880  654574.940000  2654575.618198
    6798.6000  658487.370000  2701340.313006
    6804.1330  656856.810000  2719948.021937
    6809.6830  656992.250000  2746213.196854
    6815.2540  657891.690000  2775863.955145
    6820.8420  659531.120000  2809318.365389
    6826.4480  661525.560000  2844733.366873
    6832.0760  662227.940000  2874884.610403
    6837.7260  664749.370000  2913487.459784
    6843.3930  666423.750000  2948378.772063
    6849.0770  667854.120000  2982949.235557
    6854.7840  669304.500000  3017986.341162
    6860.5080  671079.870000  3055138.362797
    6866.2500  672589.190000  3091002.426700

