# XDI/1.0
# Column.1: energy eV
# Column.2: i0
# Column.3: itrans
# Column.4: irefer
# Beamline.name: SSRL 2-3
# Beamline.notes: vert slits = 0.6mm
# Detector.I0: N2 15cm
# Detector.I1: N2 30cm
# Detector.I2: N2 15cm
# Element.edge: K
# Element.symbol: Cr
# Mono.d_spacing: 3.13550
# Mono.name: Si(111)
# Mono.notes: unfocused, detuned 75%, clockwise at E=5990eV
# Sample.formula: Cr2S3
# Sample.name: Cr2S3
# Sample.prep: powder on tape (4 layers)
# Sample.reference: Cr foil
# Sample.temperature: 100K
# Scan.start_time: 1997-04-18 17:59:32
# ///
#    Note: mono d_spacing is nominal!
#     exafs to K16
#     396  E XMU XMUR I0
#-------------
#   energy   i0   itrans  irefer
    5759.9890  222217.800000  9172.702758  1169.300822
    5769.9800  222080.800000  9357.697621  1198.299274
    5780.0070  221874.800000  9543.700075  1231.299676
    5790.0030  221424.800000  9720.703851  1262.300725
    5799.9650  221332.800000  9910.704654  1294.300573
    5810.0340  221170.800000  10108.698125  1330.299698
    5820.0000  221034.800000  10306.699856  1365.299960
    5830.0020  220764.800000  10503.703207  1398.300935
    5839.9710  220382.800000  10693.702687  1433.300797
    5849.9750  220077.800000  10892.703051  1468.299782
    5860.0160  220004.800000  11102.700470  1506.300078
    5870.0220  219661.800000  11306.695708  1544.299008
    5879.9930  219341.800000  11512.705410  1581.301503
    5890.0000  218871.800000  11714.696566  1615.299148
    5899.9710  218765.800000  11928.705845  1657.301623
    5909.9780  218404.800000  12136.703661  1694.300924
    5920.0210  217783.800000  12334.704921  1733.301251
    5930.0260  217636.800000  12550.702227  1774.301134
    5939.9950  217257.800000  12762.697608  1816.300367
    5949.9990  216990.800000  12978.705245  1854.301279
    5959.9650  216777.800000  13195.697979  1895.299485
    5969.9670  216058.800000  13374.696392  1930.300312
    5970.4870  216224.800000  13395.697954  1935.300492
    5971.0060  215787.800000  13379.698454  1932.299061
    5971.5260  215020.800000  13342.704654  1926.301354
    5971.9720  213938.800000  13285.696333  1918.299263
    5972.4920  212526.800000  13204.703582  1909.300793
    5973.0120  213218.800000  13262.703774  1917.299851
    5973.5320  215109.800000  13392.697496  1936.299341
    5973.9780  216044.800000  13464.704680  1946.301283
    5974.4980  216306.800000  13486.696704  1948.299168
    5975.0190  216545.800000  13516.701547  1954.299999
    5975.4640  216216.800000  13503.698461  1951.299592
    5975.9850  216265.800000  13514.703038  1955.301119
    5976.5060  216395.800000  13532.702158  1960.301207
    5977.0260  216206.800000  13530.702427  1959.300177
    5977.4730  216443.800000  13558.693515  1963.298426
    5977.9940  216541.800000  13572.702416  1966.299993
    5978.5150  216742.800000  13593.699279  1970.299176
    5979.0370  216816.800000  13609.699776  1972.300755
    5979.4830  216734.800000  13612.704163  1974.301147
    5980.0050  216299.800000  13595.697852  1971.300364
    5980.5260  216328.800000  13605.695237  1975.298394
    5980.9730  216115.800000  13601.694426  1973.298238
    5981.4950  216261.800000  13626.694650  1975.298865
    5982.0160  216453.800000  13644.699480  1978.300474
    5982.4630  216232.800000  13637.694389  1979.298730
    5982.9860  216779.800000  13682.697683  1983.299936
    5983.5070  216643.800000  13679.693818  1983.298822
    5984.0300  216708.800000  13694.694799  1985.298969
    5984.4770  216892.800000  13711.696425  1987.298586
    5984.9990  216608.800000  13699.700368  1985.299852
    5985.5210  215625.800000  13643.694833  1975.298444
    5985.9700  213082.800000  13485.699431  1952.299332
    5986.4920  205630.800000  13015.700087  1883.299568
    5987.0150  192477.800000  12186.695482  1760.299249
    5987.4630  186796.800000  11833.700021  1710.299318
    5987.9860  195702.800000  12398.694464  1786.299536
    5988.5090  204470.800000  12952.698930  1862.299805
    5989.0320  208799.800000  13212.705416  1890.300664
    5989.4800  211168.800000  13345.694369  1893.299007
    5990.0030  212551.800000  13389.699581  1865.299674
    5990.5260  213281.800000  13343.699101  1807.300501
    5990.9750  213439.800000  13246.704781  1750.301092
    5991.4990  213806.800000  13106.703325  1689.300949
    5992.0210  213759.800000  12945.703470  1637.300673
    5992.4710  214137.800000  12866.701989  1604.300335
    5992.9950  214161.800000  12786.703016  1569.300226
    5993.5180  214220.800000  12763.700693  1544.300812
    5993.9670  214722.800000  12799.702058  1532.300030
    5994.4920  214502.800000  12799.700752  1515.300535
    5995.0160  214607.800000  12774.693916  1501.299665
    5995.4650  214619.800000  12709.695033  1487.299546
    5995.9890  214759.800000  12523.704322  1461.301087
    5996.5140  214727.800000  12101.702915  1411.299879
    5996.9630  214656.800000  11532.699943  1346.300518
    5997.4880  214505.800000  10663.703489  1243.300799
    5998.0120  214743.800000  9799.699184  1135.299724
    5998.5380  214557.800000  9078.701411  1041.300243
    5998.9870  214217.800000  8592.702139   971.300149
    5999.5130  214627.800000  8169.701443   904.300434
    6000.0370  213695.800000  7835.702303   849.300260
    6000.4870  213587.800000  7713.700159   821.299850
    6001.0130  212482.800000  7689.702098   800.300533
    6001.4620  210904.800000  7739.699378   794.299922
    6001.9880  210243.800000  7913.702967   798.300497
    6002.5130  211664.800000  8199.702649   814.300262
    6002.9640  212726.800000  8423.696223   825.300029
    6003.4900  213865.800000  8634.697814   837.299636
    6004.0160  214146.800000  8730.701844   838.300007
    6004.4660  213953.800000  8717.697055   828.299979
    6004.9930  213733.800000  8619.700295   812.299890
    6005.5180  213819.800000  8472.703171   790.300208
    6005.9700  213924.800000  8341.695987   773.299813
    6006.4960  213950.800000  8193.696032   752.299383
    6007.0220  213843.800000  8061.703141   732.300626
    6007.4730  213789.800000  7968.699374   718.300186
    6008.0000  214244.800000  7888.699453   704.300115
    6008.5260  213481.800000  7775.700754   689.300188
    6008.9780  214111.800000  7740.701438   679.299817
    6009.5040  213966.800000  7673.699730   667.300282
    6010.0320  213871.800000  7606.702527   655.299936
    6010.9360  214001.560000  7494.454183   638.063995
    6011.8390  213895.840000  7369.723345   631.357616
    6012.8180  213851.640000  7293.514317   642.181377
    6013.7980  213595.950000  7299.808728   657.533968
    6014.7780  213712.800000  7361.620297   674.414790
    6015.7580  213657.160000  7427.948233   687.826037
    6016.8150  214082.030000  7493.779372   693.764481
    6017.7960  213953.420000  7496.133301   687.233836
    6018.9290  214313.340000  7492.002736   678.233368
    6019.9860  214455.780000  7488.380580   670.760298
    6021.1200  214590.730000  7508.274151   670.817362
    6022.1770  214953.200000  7537.679153   675.401689
    6023.3880  215015.200000  7571.602404   681.518231
    6024.5220  215114.720000  7631.034865   690.162272
    6025.7330  215395.750000  7721.981745   698.335267
    6026.8690  215783.300000  7848.439038   705.038169
    6028.1570  215945.370000  7990.413088   712.269776
    6029.3690  216414.970000  8118.900365   718.030467
    6030.5820  216526.080000  8209.902126   722.320742
    6031.8720  216821.700000  8336.424078   729.141370
    6033.1610  217631.860000  8520.447984   743.489913
    6034.5280  217908.530000  8719.992585   762.367457
    6035.8190  218284.720000  8897.045592   776.774077
    6037.1870  218636.420000  9026.612581   785.710533
    6038.5550  218759.660000  9080.703651   787.176083
    6040.0000  219521.410000  9123.301705   786.171567
    6041.3700  219993.670000  9121.404307   785.694510
    6042.8160  220355.450000  9090.027417   784.747652
    6044.2640  220726.770000  9066.167263   785.330683
    6045.7120  221429.590000  9079.822653   791.442270
    6047.2370  221776.940000  9069.989459   793.083396
    6048.7630  222701.800000  9053.665079   794.252115
    6050.2890  223376.190000  9001.851702   794.951876
    6051.8160  223874.090000  8948.561522   801.181149
    6053.4220  224199.520000  8909.778395   804.937511
    6054.9510  225026.450000  8915.514406   815.225066
    6056.5570  225488.920000  8897.764118   822.041024
    6058.2410  226099.910000  8866.525281   829.386491
    6059.8490  226788.410000  8834.791165   828.259696
    6061.5350  226977.420000  8793.576759   828.663217
    6063.2220  227091.970000  8772.879517   828.596552
    6064.9100  228449.030000  8816.695342   829.059065
    6066.6760  228986.610000  8848.027300   826.050417
    6068.3650  229784.700000  8918.865778   823.569599
    6070.1330  230591.330000  8997.223318   820.620933
    6071.9020  231417.470000  9044.088220   815.198456
    6073.7490  232108.120000  9070.471956   813.306939
    6075.5210  232904.300000  9146.365979   823.943466
    6077.3690  234072.000000  9320.774819   849.111101
    6079.2200  234713.220000  9530.702490   881.807438
    6081.1490  235537.950000  9779.135124   918.031153
    6083.0020  236404.200000  10005.090884   951.786106
    6084.9340  237478.980000  10225.556382   986.069061
    6086.8660  238301.280000  10406.532724  1007.881653
    6088.8000  239362.090000  10586.021732  1021.223508
    6090.8130  240397.420000  10741.024445  1019.093463
    6092.8270  241268.280000  10856.549185  1008.494384
    6094.8430  242200.660000  10939.581653   992.423404
    6096.8590  243126.550000  10998.128145   976.882490
    6098.8780  244240.950000  11058.177926   964.869170
    6100.9750  245151.890000  11087.750913   960.386931
    6103.0750  246302.340000  11138.836724   967.432916
    6105.1750  247543.310000  11205.442039   987.007695
    6107.2770  248503.810000  11240.554516  1012.111940
    6109.4590  249601.810000  11251.178605  1037.745828
    6111.6430  250443.340000  11205.320468  1057.908354
    6113.8270  251728.390000  11166.974186  1074.600204
    6116.0130  252964.970000  11149.147311  1083.822366
    6118.2800  254376.050000  11168.828003  1087.573082
    6120.4700  255374.660000  11187.026087  1087.853754
    6122.7400  256362.780000  11243.728997  1089.661994
    6125.0110  257955.440000  11371.950680  1100.999999
    6127.3630  259196.590000  11518.688560  1118.868390
    6129.6390  260427.280000  11683.933194  1141.263140
    6131.9950  261698.480000  11864.704701  1170.189851
    6134.3520  263288.220000  12041.973346  1192.644757
    6136.7900  264401.470000  12179.773520  1208.629010
    6139.1510  265915.220000  12336.070554  1224.142423
    6141.5940  267024.500000  12493.886123  1237.184724
    6144.0380  268204.310000  12668.226913  1252.757399
    6146.4840  270020.620000  12866.066305  1268.858055
    6148.9320  271267.470000  13025.426194  1276.487683
    6151.4620  272598.840000  13178.296396  1284.647374
    6153.9940  273806.720000  13313.685032  1292.336029
    6156.5280  275307.120000  13459.582077  1307.554076
    6159.0640  276770.030000  13600.994904  1313.302484
    6161.6030  278035.470000  13729.924152  1315.578767
    6164.2220  279486.440000  13879.359052  1313.382376
    6166.8440  280895.910000  14017.312512  1322.717290
    6169.4700  282449.910000  14158.784230  1341.581612
    6172.0960  284099.440000  14337.770053  1374.976057
    6174.8060  285738.470000  14568.256537  1418.897202
    6177.5170  287241.030000  14821.260779  1463.347602
    6180.2310  288810.090000  15038.782194  1503.328040
    6182.9480  290257.690000  15192.822534  1530.839250
    6185.6670  291667.810000  15276.375005  1548.877566
    6188.4690  293266.440000  15353.439911  1560.447357
    6191.2730  294838.590000  15417.019385  1569.545448
    6194.0810  296807.280000  15510.094024  1585.169021
    6196.8910  298687.470000  15611.702229  1602.326725
    6199.7030  300493.190000  15730.823871  1619.012008
    6202.5990  302209.410000  15870.454732  1640.227887
    6205.4980  303889.160000  16026.603010  1662.971446
    6208.3990  305224.440000  16178.260148  1685.244024
    6211.3040  306946.220000  16353.428231  1716.043848
    6214.2100  308855.530000  16538.113514  1743.376286
    6217.2020  310610.370000  16735.300605  1771.235449
    6220.1960  312436.720000  16950.018964  1790.625415
    6223.1930  314199.590000  17178.239215  1807.542921
    6226.1930  316057.970000  17419.994333  1822.992982
    6229.1960  317868.870000  17674.235174  1839.969397
    6232.2840  319745.310000  17922.013696  1851.477136
    6235.3750  319552.250000  18049.280044  1855.512238
    6238.4690  324102.720000  18444.080937  1883.075798
    6241.5650  316693.720000  18143.386676  1844.171498
    6244.7480  325852.220000  18792.201420  1910.794197
    6247.8520  328254.250000  19053.550469  1944.946481
    6251.0410  330496.780000  19333.395095  1991.629039
    6254.2330  332651.840000  19630.753988  2048.839259
    6257.4290  334438.440000  19904.619227  2104.577694
    6260.7100  336318.530000  20169.019053  2158.847937
    6263.9130  338207.160000  20403.911183  2196.645902
    6267.2020  340191.310000  20634.328809  2227.972849
    6270.4940  342338.970000  20852.261061  2251.830377
    6273.7900  344138.160000  21019.702342  2275.216482
    6277.1720  346112.840000  21185.666596  2301.131248
    6280.4750  348136.090000  21336.142518  2326.577879
    6283.8650  350035.810000  21485.117014  2346.550702
    6287.2580  352174.090000  21699.617360  2374.053014
    6290.6550  354057.840000  21923.635241  2404.087202
    6294.0560  355660.160000  22164.162179  2437.648069
    6297.5440  357642.970000  22430.198501  2475.737170
    6300.9540  359934.310000  22707.733348  2516.355294
    6304.4500  361940.190000  22946.811105  2554.506303
    6307.9500  364067.560000  23201.396128  2590.185397
    6311.5380  365912.440000  23461.483343  2623.391824
    6315.0470  368242.870000  23774.098585  2657.130267
    6318.5600  370347.810000  24081.203324  2684.392891
    6322.1610  372697.250000  24406.840171  2713.188273
    6325.7660  374656.220000  24711.997608  2743.514764
    6329.3750  377119.720000  25050.648032  2779.365590
    6333.0730  378890.750000  25356.824503  2817.747776
    6336.6910  380940.280000  25681.518724  2851.660960
    6340.3970  383288.310000  26009.724143  2897.103584
    6344.1090  385572.910000  26332.431230  2943.073096
    6347.8260  387787.000000  26610.668846  2990.573634
    6351.5460  390037.590000  26900.398997  3035.600062
    6355.2710  392289.720000  27206.655978  3079.156354
    6359.0850  394422.370000  27534.433266  3130.245200
    6362.8190  396553.560000  27870.704351  3188.858813
    6366.6450  398233.250000  28228.522103  3247.007779
    6370.4730  400853.440000  28644.827167  3313.681723
    6374.3070  402669.190000  28979.635419  3362.882040
    6378.2300  405541.440000  29387.989285  3413.619151
    6382.0750  407951.190000  29743.824627  3459.878715
    6386.0090  409146.500000  30000.207029  3498.674850
    6389.9480  411209.280000  30321.083086  3542.990987
    6393.8930  413425.620000  30643.470922  3590.841655
    6397.8420  415401.470000  30938.378943  3633.220519
    6401.8820  417720.840000  31264.784319  3677.129286
    6405.8430  419904.720000  31587.732349  3721.567046
    6409.8940  422458.120000  31938.185056  3771.535895
    6413.9500  424506.030000  32265.134197  3816.028456
    6418.0130  426986.500000  32634.610494  3870.053754
    6422.0810  429773.440000  33038.587156  3931.606756
    6426.1530  432010.940000  33417.105580  3980.692949
    6430.3180  433609.940000  33761.104122  4028.303720
    6434.4020  436074.470000  34211.643232  4082.444828
    6438.5790  437475.500000  34597.682645  4127.119493
    6442.7610  439813.060000  35038.230767  4188.316122
    6446.9490  441919.120000  35455.304636  4248.049256
    6451.2300  444272.750000  35898.900764  4322.308678
    6455.4300  446814.840000  36364.982072  4396.093390
    6459.7230  449251.500000  36856.605804  4475.414014
    6463.9340  451381.660000  37305.703895  4547.257184
    6468.2390  453913.340000  37788.366804  4613.636150
    6472.5500  455464.530000  38168.510500  4675.536162
    6476.9550  458531.250000  38700.148855  4752.968862
    6481.2780  460192.500000  39110.339924  4819.932290
    6485.6070  462851.250000  39600.024152  4894.424637
    6490.0310  465298.530000  40082.234234  4966.449505
    6494.4610  467480.310000  40528.937705  5030.997277
    6498.8980  469680.620000  40975.196974  5093.080897
    6503.3410  471770.470000  41390.921731  5155.688019
    6507.7900  473935.810000  41818.209999  5220.827377
    6512.3350  475952.690000  42235.979752  5287.494259
    6516.7970  478396.090000  42720.249267  5367.692046
    6521.3550  480883.000000  43216.051869  5446.417196
    6525.9200  483031.440000  43689.366576  5527.671968
    6530.4920  485336.370000  44189.190349  5605.454810
    6535.0690  488176.840000  44739.541918  5692.774375
    6539.6550  490662.840000  45249.391008  5767.612471
    6544.2470  492384.340000  45715.736876  5841.984732
    6548.9360  494458.370000  46219.646725  5912.885553
    6553.5410  496491.940000  46715.043794  5988.322062
    6558.2440  498780.000000  47251.959159  6064.281791
    6562.9540  500911.590000  47800.381395  6147.765106
    6567.6710  503097.690000  48352.327821  6237.786338
    6572.3950  505541.310000  48960.740182  6335.329064
    6577.2180  507973.470000  49565.707908  6437.403154
    6581.9560  509903.120000  50112.212802  6525.018229
    6586.7920  511985.310000  50656.164608  6617.144505
    6591.5460  514184.030000  51200.701668  6709.814038
    6596.3970  516138.250000  51729.729553  6796.009869
    6601.2570  518476.000000  52291.233590  6887.731181
    6606.1250  520704.250000  52883.280073  6980.979401
    6611.0910  523105.030000  53483.824697  7079.761821
    6615.9730  525448.370000  54098.904505  7180.068592
    6620.9550  527719.190000  54707.527002  7277.914163
    6625.8530  529448.500000  55253.622217  7366.280508
    6630.8500  531854.370000  55883.195135  7473.173273
    6635.8550  533823.750000  56472.326873  7575.601304
    6640.8690  536060.690000  57079.006227  7675.560977
    6645.8910  538570.060000  57734.134840  7785.045036
    6650.9190  540557.000000  58310.786269  7886.055628
    6655.9570  542469.500000  58903.991905  7987.604181
    6661.0960  544507.440000  59518.703411  8096.675993
    6666.1500  546804.940000  60162.855234  8206.275276
    6671.3050  548935.000000  60758.624390  8306.414415
    6676.4690  551059.500000  61393.857461  8419.073519
    6681.6420  552635.560000  61965.560863  8518.257156
    6686.8220  553979.120000  62522.844159  8618.982140
    6692.0110  555119.250000  63059.640648  8707.232094
    6697.3030  554656.870000  63415.903276  8779.001443
    6702.5090  532098.000000  61287.731417  8501.313516
    6707.7240  576667.620000  66845.036468  9290.143988
    6713.0420  571290.810000  66662.886881  9287.518291
    6718.3690  571494.500000  67142.206783  9372.406180
    6723.7050  572277.750000  67704.080438  9469.834686
    6729.0490  573525.440000  68340.413328  9585.775633
    6734.4030  573938.690000  68883.355822  9689.265069
    6739.7660  580471.500000  70154.693036  9897.267454
    6745.1370  579730.750000  70554.663038  9982.821558
    6750.6140  565615.560000  69293.050849  9835.886891
    6756.0030  574513.940000  70929.991939  10090.479561
    6761.4980  574665.750000  71437.473273  10188.611403
    6766.9060  589308.120000  73740.426071  10548.273221
    6772.4200  575584.000000  72533.910065  10402.458553
    6777.9430  593815.440000  75357.884957  10833.168271
    6783.4760  594629.370000  75969.375406  10949.407048
    6789.0180  596114.810000  76682.405073  11084.184614
    6794.5690  596044.750000  77178.949744  11192.486983
    6800.2280  593659.250000  77388.988386  11256.317218
    6805.7990  561724.250000  73702.599587  10745.693516
    6811.4770  614677.810000  81247.678163  11874.583129
    6817.0670  611440.870000  81392.265804  11928.998133
    6822.7650  611676.440000  81966.321534  12039.939921
    6828.4730  613138.500000  82720.946129  12185.428449
    6834.1900  614478.120000  83479.101758  12322.431765
    6839.9180  615569.250000  84210.738559  12462.965036
    6845.6560  616877.870000  84973.892535  12603.040100
    6851.4050  619347.000000  85910.555028  12776.629697
    6857.1630  620684.690000  86691.705255  12924.751675
    6863.0310  622141.940000  87525.420053  13086.409724
    6868.8100  623851.620000  88380.605576  13244.581847
    6874.6980  625472.870000  89227.381116  13411.304298
    6880.4980  627425.620000  90142.624271  13582.539806
    6886.4070  629178.940000  91012.394410  13753.312436
    6892.3270  630963.690000  91917.581043  13923.601046
    6898.2580  632539.060000  92791.400979  14094.434084
    6904.2000  634210.870000  93691.690342  14267.803590
    6910.1520  635868.250000  94605.478609  14447.687798
    6916.1150  636980.120000  95411.817724  14615.103003
    6922.0890  637769.500000  96204.673041  14773.055287
    6928.1750  639357.440000  97128.968931  14949.512222
    6934.1710  640964.870000  98036.871767  15135.525314
    6940.2790  642404.810000  98966.226964  15322.060462
    6946.2960  643897.310000  99861.103638  15509.120293
    6952.4280  645127.310000  100773.525487  15691.712036
    6958.5690  646607.810000  101692.437943  15872.831607
    6964.6200  649363.810000  102819.922178  16085.498145
    6970.7850  650279.370000  103681.849455  16265.675184
    6976.9600  651466.440000  104582.254203  16443.378664
    6983.1470  654428.060000  105776.212901  16677.602696
    6989.3470  655852.190000  106713.688901  16868.372914
    6995.6610  657115.810000  107657.756469  17064.670504
    7001.8820  658897.940000  108662.272144  17271.498399
    7008.1160  659548.620000  109519.289324  17444.853765
    7014.4650  660792.810000  110464.846751  17646.744899
    7020.7220  661232.500000  111303.813149  17820.144267
    7027.0960  662391.750000  112242.437036  18022.088569
    7033.3760  663545.500000  113168.451186  18213.561012
    7039.7740  665084.750000  114196.137698  18419.566128
    7046.1830  666370.560000  115172.143855  18627.088873
    7052.6040  667460.870000  116167.808045  18829.160656
    7059.0390  668595.690000  117155.900140  19040.733022
    7065.4840  669933.000000  118184.588010  19265.861729
    7071.9420  671113.870000  119211.809715  19483.516970
    7078.4130  672389.250000  120227.455829  19693.692640
    7084.8960  673122.190000  121166.650314  19900.400822
    7091.3910  674158.620000  122177.319064  20124.629727
    7097.8990  674854.560000  123131.538295  20332.390407
    7104.5260  675423.000000  124068.292661  20543.676101
    7111.0590  676519.000000  125099.514047  20764.494500

