# XDI/1.0
# Column.1: energy eV
# Column.2: i0
# Column.3: itrans
# Column.4: irefer
# Beamline.name: SSRL 2-3
# Beamline.notes: vert slits = 0.6mm
# Detector.I0: N2 15cm
# Detector.I1: N2 30cm
# Detector.I2: N2 15cm
# Element.edge: K
# Element.symbol: Cr
# Mono.d_spacing: 3.13550
# Mono.name: Si(111)
# Mono.notes: unfocused, detuned 75%, clockwise at E=5990eV
# Sample.formula: Cr2S3
# Sample.name: Cr2S3
# Sample.prep: powder on tape (4 layers)
# Sample.reference: Cr foil
# Sample.temperature: 100K
# Scan.start_time: 1997-04-18 17:59:32
# ///
#    Note: mono d_spacing is nominal!
#     exafs to K16
#     396  E XMU XMUR I0
#-------------
#   energy   i0   itrans  irefer
    5759.9890  221268.800000  9149.701465  1169.299968
    5769.9800  221148.800000  9328.701012  1198.299871
    5780.0070  221034.800000  9519.698282  1231.299549
    5790.0030  220440.800000  9684.698620  1262.299652
    5799.9650  220549.800000  9892.704039  1295.300248
    5810.0340  220272.800000  10082.696917  1330.299065
    5820.0000  220020.800000  10267.700429  1362.299509
    5830.0020  219571.800000  10457.697249  1397.299278
    5839.9710  219712.800000  10677.697698  1434.299016
    5849.9750  219345.800000  10870.704169  1469.300563
    5860.0160  219096.800000  11077.695156  1507.299503
    5870.0220  218860.800000  11282.703748  1544.300275
    5879.9930  218499.800000  11482.694768  1580.299047
    5890.0000  217849.800000  11668.697563  1615.300221
    5899.9710  217462.800000  11871.704569  1654.301394
    5909.9780  217537.800000  12100.703949  1696.300373
    5920.0210  217116.800000  12309.698623  1735.300258
    5930.0260  216662.800000  12513.702300  1776.301206
    5939.9950  216487.800000  12735.701544  1815.300820
    5949.9990  216392.800000  12956.703185  1856.300029
    5959.9650  216026.800000  13164.706175  1897.301235
    5969.9670  215521.800000  13350.703292  1932.300118
    5970.4870  215487.800000  13361.698529  1935.299888
    5971.0060  215098.800000  13349.693923  1932.298945
    5971.5260  214142.800000  13300.705543  1928.300572
    5971.9720  212824.800000  13235.694278  1917.298745
    5972.4920  211673.800000  13170.696641  1907.299582
    5973.0120  212467.800000  13235.696335  1916.300391
    5973.5320  214282.800000  13362.705271  1936.301360
    5973.9780  215182.800000  13423.701316  1944.299775
    5974.4980  215665.800000  13464.693823  1949.299325
    5975.0190  215542.800000  13462.694605  1949.298370
    5975.4640  215344.800000  13461.697955  1949.300255
    5975.9850  215471.800000  13482.695421  1953.299595
    5976.5060  215585.800000  13496.696802  1957.300003
    5977.0260  215623.800000  13508.704056  1959.299914
    5977.4730  215456.800000  13503.695995  1960.299809
    5977.9940  215473.800000  13521.693538  1962.298175
    5978.5150  215712.800000  13548.703950  1967.299703
    5979.0370  215767.800000  13555.696020  1968.299219
    5979.4830  215613.800000  13557.702614  1968.301217
    5980.0050  215310.800000  13551.694105  1967.299058
    5980.5260  215521.800000  13574.704051  1971.299686
    5980.9730  215753.800000  13592.700800  1974.300074
    5981.4950  215529.800000  13589.700410  1972.299623
    5982.0160  215378.800000  13584.702430  1972.299929
    5982.4630  215561.800000  13610.705380  1974.301457
    5982.9860  215633.800000  13621.706663  1977.300634
    5983.5070  215752.800000  13634.704009  1980.299920
    5984.0300  215713.800000  13640.693976  1978.299286
    5984.4770  215693.800000  13644.695109  1980.298933
    5984.9990  215567.800000  13646.696494  1977.300394
    5985.5210  214753.800000  13600.699914  1970.300867
    5985.9700  212074.800000  13437.698026  1945.299681
    5986.4920  204480.800000  12955.703081  1873.300941
    5987.0150  191071.800000  12108.700861  1750.300126
    5987.4630  186145.800000  11797.695757  1704.299605
    5987.9860  195417.800000  12393.694443  1786.298909
    5988.5090  203777.800000  12921.701497  1860.300780
    5989.0320  208147.800000  13186.695495  1887.298430
    5989.4800  210536.800000  13317.706421  1891.300069
    5990.0030  212039.800000  13366.706062  1864.300644
    5990.5260  212777.800000  13326.698495  1808.300454
    5990.9750  212713.800000  13204.697008  1745.300244
    5991.4990  213235.800000  13073.700223  1685.300010
    5992.0210  213319.800000  12921.704904  1636.301395
    5992.4710  213460.800000  12829.705306  1600.300156
    5992.9950  213618.800000  12754.703661  1566.299950
    5993.5180  213659.800000  12735.699451  1542.300342
    5993.9670  213630.800000  12744.697356  1527.299726
    5994.4920  213854.800000  12765.705022  1514.299991
    5995.0160  213646.800000  12727.705900  1497.301045
    5995.4650  213586.800000  12648.698284  1483.299959
    5995.9890  213806.800000  12465.699138  1457.300576
    5996.5140  213618.800000  12028.695877  1406.299967
    5996.9630  213814.800000  11470.703002  1341.299902
    5997.4880  213601.800000  10604.702492  1240.300308
    5998.0120  213802.800000  9739.697843  1133.299279
    5998.5380  213744.800000  9044.698455  1039.299346
    5998.9870  213525.800000  8572.699425   971.299579
    5999.5130  213511.800000  8134.701937   903.300592
    6000.0370  213159.800000  7818.698584   849.299930
    6000.4870  213104.800000  7698.696767   823.299743
    6001.0130  212098.800000  7682.701198   802.299904
    6001.4620  210564.800000  7733.700321   795.300255
    6001.9880  209841.800000  7902.703479   800.300428
    6002.5130  210946.800000  8179.704040   814.300325
    6002.9640  212578.800000  8423.696475   829.300042
    6003.4900  213436.800000  8619.704214   836.300543
    6004.0160  213416.800000  8704.699578   836.299950
    6004.4660  213393.800000  8693.697041   828.300130
    6004.9930  213297.800000  8603.699725   811.299749
    6005.5180  213569.800000  8463.702379   791.299864
    6005.9700  213379.800000  8320.702418   770.299928
    6006.4960  213258.800000  8166.696253   750.299703
    6007.0220  213419.800000  8049.702370   732.300096
    6007.4730  213183.800000  7949.704073   716.300652
    6008.0000  213401.800000  7864.703001   702.300274
    6008.5260  213209.800000  7770.703163   687.300040
    6008.9780  213320.800000  7718.701388   676.300440
    6009.5040  213291.800000  7655.697801   663.300056
    6010.0320  213193.800000  7586.699218   650.300062
    6010.9360  213492.560000  7480.457732   635.064306
    6011.8390  213244.840000  7355.725497   628.358126
    6012.8180  213264.640000  7278.507561   637.180589
    6013.7980  213438.950000  7293.808542   657.533769
    6014.7780  213525.800000  7355.620159   675.414751
    6015.7580  213543.160000  7427.942978   688.825688
    6016.8150  213787.030000  7487.779807   693.764532
    6017.7960  213997.420000  7500.134539   689.234277
    6018.9290  214106.340000  7483.000197   679.232909
    6019.9860  213847.780000  7469.383410   669.760196
    6021.1200  214071.730000  7489.276113   669.817592
    6022.1770  214219.200000  7515.682142   672.402466
    6023.3880  214606.200000  7561.599340   682.518068
    6024.5220  214416.720000  7611.029241   689.161534
    6025.7330  214917.750000  7714.976168   700.334919
    6026.8690  215010.300000  7824.438166   706.037402
    6028.1570  215468.370000  7980.412675   714.269543
    6029.3690  215531.970000  8084.901025   716.031049
    6030.5820  215830.080000  8186.909133   722.321052
    6031.8720  216199.700000  8314.421337   729.140758
    6033.1610  216457.860000  8485.449613   741.490363
    6034.5280  216959.530000  8690.989840   759.366944
    6035.8190  217281.720000  8862.046859   775.773844
    6037.1870  217542.420000  8981.616399   783.710855
    6038.5550  217750.660000  9043.702388   786.176189
    6040.0000  218145.410000  9067.293867   785.170693
    6041.3700  218738.670000  9071.410182   783.695074
    6042.8160  219167.450000  9047.034727   782.748410
    6044.2640  219504.770000  9021.169333   782.331249
    6045.7120  219937.590000  9016.820922   787.442304
    6047.2370  220569.940000  9018.985296   790.083086
    6048.7630  221342.800000  8994.665065   792.252307
    6050.2890  221808.190000  8938.859420   791.952392
    6051.8160  222554.090000  8894.562840   797.180759
    6053.4220  222889.520000  8862.777674   804.937393
    6054.9510  223612.450000  8856.515648   812.225246
    6056.5570  224167.920000  8839.757232   820.040470
    6058.2410  224900.910000  8815.520888   825.386024
    6059.8490  225493.410000  8778.793069   828.260082
    6061.5350  225778.420000  8738.583240   827.664066
    6063.2220  226171.970000  8731.879503   826.596707
    6064.9100  226674.030000  8743.696094   826.059061
    6066.6760  227345.610000  8783.020515   823.049751
    6068.3650  228326.700000  8854.869185   821.570520
    6070.1330  229142.330000  8934.224389   818.621328
    6071.9020  230001.470000  8984.094178   813.199103
    6073.7490  230614.120000  9009.475326   810.306942
    6075.5210  231414.300000  9084.372328   821.944512
    6077.3690  232149.000000  9243.775507   844.110733
    6079.2200  233122.220000  9463.704148   878.806858
    6081.1490  234043.950000  9720.138995   915.031231
    6083.0020  234888.200000  9944.092500   949.786227
    6084.9340  235798.980000  10158.549461   982.068382
    6086.8660  236719.280000  10340.528361  1004.880839
    6088.8000  237423.090000  10498.020751  1015.223453
    6090.8130  238491.420000  10655.022048  1012.093881
    6092.8270  239277.280000  10763.545919  1003.494137
    6094.8430  240234.660000  10853.582346   988.423722
    6096.8590  241160.550000  10911.124818   972.882363
    6098.8780  242206.950000  10960.178041   961.869518
    6100.9750  243195.890000  11004.752779   957.386838
    6103.0750  244241.340000  11046.844646   964.433723
    6105.1750  245455.310000  11098.443730   984.008144
    6107.2770  246488.810000  11143.558265  1009.111859
    6109.4590  247675.810000  11156.180768  1036.745701
    6111.6430  248703.340000  11120.327953  1054.909288
    6113.8270  250203.390000  11094.973269  1070.600972
    6116.0130  251152.970000  11066.142213  1078.821450
    6118.2800  252373.050000  11072.829890  1084.572988
    6120.4700  253551.660000  11105.023675  1085.852713
    6122.7400  254761.780000  11174.729255  1086.662326
    6125.0110  256106.440000  11288.958671  1095.999946
    6127.3630  257174.590000  11427.688116  1113.867499
    6129.6390  258510.280000  11592.941958  1137.264095
    6131.9950  259805.480000  11779.705727  1165.190039
    6134.3520  260990.220000  11941.980143  1187.645690
    6136.7900  262458.470000  12090.776147  1206.629409
    6139.1510  263691.220000  12234.071405  1219.142567
    6141.5940  265247.500000  12412.888803  1234.184407
    6144.0380  266417.310000  12588.225766  1252.757240
    6146.4840  267867.620000  12763.070749  1264.858051
    6148.9320  269335.470000  12932.424734  1272.487572
    6151.4620  270683.840000  13085.300458  1281.647677
    6153.9940  272057.720000  13222.689423  1292.337055
    6156.5280  273532.120000  13372.576172  1304.553786
    6159.0640  274962.030000  13514.997779  1309.301797
    6161.6030  276518.470000  13652.922728  1312.578624
    6164.2220  278033.440000  13802.357270  1313.383188
    6166.8440  279399.910000  13940.316712  1320.717467
    6169.4700  280849.910000  14076.790799  1338.582741
    6172.0960  282607.440000  14260.761246  1372.974833
    6174.8060  283918.470000  14474.263184  1411.896900
    6177.5170  285454.030000  14724.267756  1455.349387
    6180.2310  286914.090000  14944.791328  1493.328966
    6182.9480  288690.690000  15110.816897  1523.839045
    6185.6670  290316.810000  15209.371364  1542.878419
    6188.4690  291930.440000  15277.429677  1554.446533
    6191.2730  293378.590000  15331.014851  1563.543768
    6194.0810  294961.280000  15409.097681  1576.170378
    6196.8910  296779.470000  15513.697413  1592.326792
    6199.7030  298432.190000  15626.821078  1611.012298
    6202.5990  300102.410000  15754.448709  1629.227186
    6205.4980  301696.160000  15910.597843  1645.970892
    6208.3990  303394.440000  16075.248698  1671.243134
    6211.3040  305158.220000  16247.424375  1702.043174
    6214.2100  307007.530000  16430.104215  1730.375220
    6217.2020  308639.370000  16623.303030  1755.234573
    6220.1960  310455.720000  16833.017457  1773.624659
    6223.1930  312372.590000  17069.251279  1794.545298
    6226.1930  313953.970000  17297.991263  1806.993443
    6229.1960  315971.870000  17562.240842  1826.970610
    6232.2840  317540.310000  17789.008577  1839.477881
    6235.3750  317610.250000  17934.280663  1840.512384
    6238.4690  321938.720000  18318.073893  1872.076452
    6241.5650  314526.720000  18015.383518  1835.169839
    6244.7480  323406.220000  18636.204739  1893.793916
    6247.8520  326093.250000  18919.542516  1930.946666
    6251.0410  328454.780000  19200.381957  1978.627005
    6254.2330  330240.840000  19477.758142  2033.839135
    6257.4290  332036.440000  19754.626596  2093.578331
    6260.7100  334053.530000  20015.025162  2143.849939
    6263.9130  335910.160000  20252.915191  2181.646230
    6267.2020  337813.310000  20478.333107  2208.974555
    6270.4940  339857.970000  20695.262204  2233.830433
    6273.7900  341646.160000  20863.716165  2255.217863
    6277.1720  343579.840000  21015.673480  2281.133607
    6280.4750  345602.090000  21168.137105  2304.576859
    6283.8650  347435.810000  21317.129012  2325.553159
    6287.2580  349496.090000  21515.624114  2349.053249
    6290.6550  351645.840000  21767.619744  2377.084015
    6294.0560  353391.160000  22003.148251  2409.645269
    6297.5440  355401.970000  22287.198576  2450.738625
    6300.9540  357671.310000  22547.753460  2492.358463
    6304.4500  359529.190000  22787.801480  2527.504292
    6307.9500  361469.560000  23026.387326  2558.184516
    6311.5380  363580.440000  23301.472721  2593.391725
    6315.0470  366052.870000  23629.094642  2630.128690
    6318.5600  368058.810000  23925.210489  2662.394046
    6322.1610  369901.250000  24216.835622  2688.187240
    6325.7660  371860.220000  24519.998036  2713.512798
    6329.3750  374102.720000  24836.650677  2750.367151
    6333.0730  376403.750000  25182.828927  2788.749731
    6336.6910  378360.280000  25496.517224  2825.662537
    6340.3970  380724.310000  25824.703076  2871.100821
    6344.1090  382935.910000  26130.432686  2915.072347
    6347.8260  385172.000000  26415.659251  2960.570504
    6351.5460  387155.590000  26691.406337  3002.600221
    6355.2710  389431.720000  27001.665473  3052.160035
    6359.0850  391731.370000  27328.423769  3103.244957
    6362.8190  393640.560000  27651.699993  3158.860018
    6366.6450  395539.250000  28013.513640  3220.005359
    6370.4730  398159.440000  28431.808274  3279.678922
    6374.3070  400280.190000  28788.637467  3332.883272
    6378.2300  402562.440000  29158.988402  3378.619571
    6382.0750  404801.190000  29499.816934  3423.878791
    6386.0090  406913.500000  29822.186566  3467.672543
    6389.9480  409053.280000  30147.060317  3516.989671
    6393.8930  411258.620000  30459.479592  3564.843887
    6397.8420  413437.470000  30764.372448  3609.222163
    6401.8820  415635.840000  31088.795852  3652.129756
    6405.8430  417935.720000  31421.728398  3697.565539
    6409.8940  420400.120000  31774.177272  3743.533399
    6413.9500  422543.030000  32092.144731  3790.031338
    6418.0130  424660.500000  32431.592542  3843.052706
    6422.0810  426935.440000  32803.584974  3898.605041
    6426.1530  429260.940000  33180.089619  3954.689088
    6430.3180  431580.940000  33590.123192  4005.306357
    6434.4020  433688.470000  34003.636177  4055.445173
    6438.5790  435973.500000  34461.662066  4114.117952
    6442.7610  438306.060000  34906.233846  4172.316652
    6446.9490  440803.120000  35356.290863  4236.046207
    6451.2300  443206.750000  35800.876110  4307.304771
    6455.4300  445411.840000  36236.986992  4381.093441
    6459.7230  447405.500000  36686.591799  4450.410514
    6463.9340  449790.660000  37151.727640  4525.261088
    6468.2390  452157.340000  37606.361188  4592.636301
    6472.5500  454350.530000  38049.501865  4657.538048
    6476.9550  456550.250000  38500.174381  4725.974441
    6481.2780  459272.500000  39007.335408  4801.933819
    6485.6070  461170.250000  39428.041670  4868.428917
    6490.0310  463485.530000  39904.223305  4938.448265
    6494.4610  465826.310000  40359.945265  5008.001029
    6498.8980  468278.620000  40828.177198  5074.076108
    6503.3410  470460.470000  41255.933237  5139.690885
    6507.7900  472613.810000  41679.174253  5206.826670
    6512.3350  474868.690000  42123.986276  5280.497537
    6516.7970  477397.090000  42621.235644  5357.688427
    6521.3550  479343.000000  43075.070380  5433.418079
    6525.9200  481663.440000  43552.347826  5511.669726
    6530.4920  484004.370000  44049.188748  5588.455408
    6535.0690  486321.840000  44547.526342  5665.768977
    6539.6550  488363.840000  45033.411940  5739.618254
    6544.2470  490267.340000  45511.763644  5814.982835
    6548.9360  492053.370000  45977.639764  5879.884896
    6553.5410  493879.940000  46462.031455  5955.317103
    6558.2440  496384.000000  47032.921819  6039.274089
    6562.9540  498358.590000  47552.381799  6125.766418
    6567.6710  500455.690000  48091.289218  6209.783693
    6572.3950  502551.310000  48663.766762  6300.334607
    6577.2180  505075.470000  49277.710723  6400.408802
    6581.9560  507182.120000  49832.189471  6499.011901
    6586.7920  509203.310000  50382.171230  6592.148812
    6591.5460  511278.030000  50900.692688  6675.809913
    6596.3970  513783.250000  51479.696330  6775.007569
    6601.2570  516143.000000  52059.216987  6861.724938
    6606.1250  518252.250000  52630.304911  6955.982585
    6611.0910  520306.030000  53198.870116  7046.761557
    6615.9730  523104.340000  53853.906606  7150.068571
    6620.9550  524947.190000  54412.486951  7240.908392
    6625.8530  527216.500000  55019.588706  7335.277771
    6630.8500  529547.370000  55633.226562  7437.179093
    6635.8550  531484.750000  56207.348523  7539.602826
    6640.8690  533319.690000  56778.006315  7634.565576
    6645.8910  535597.060000  57393.159551  7744.052463
    6650.9190  537525.000000  57965.805164  7842.057770
    6655.9570  540543.500000  58674.963219  7960.597938
    6661.0960  542764.440000  59318.688828  8069.676653
    6666.1500  544509.940000  59887.882998  8171.276978
    6671.3050  546270.000000  60463.589596  8269.403341
    6676.4690  548563.500000  61101.843850  8378.073901
    6681.6420  550491.560000  61711.581783  8485.260713
    6686.8220  552105.120000  62292.838225  8584.973975
    6692.0110  553305.250000  62848.611241  8678.223470
    6697.3030  553697.870000  63300.939874  8766.005040
    6702.5090  530963.000000  61149.723409  8484.307994
    6707.7240  575708.620000  66713.055250  9276.150692
    6713.0420  570096.810000  66503.873129  9265.512635
    6718.3690  569496.500000  66882.184895  9340.405224
    6723.7050  570690.750000  67475.088415  9447.833625
    6729.0490  571976.440000  68124.424260  9562.783079
    6734.4030  572281.690000  68658.321089  9656.259281
    6739.7660  579015.500000  69956.753746  9863.274842
    6745.1370  577543.750000  70269.664946  9940.816867
    6750.6140  563961.560000  69075.084433  9798.889796
    6756.0030  574221.940000  70864.030433  10077.487510
    6761.4980  572849.750000  71211.439021  10153.611611
    6766.9060  586971.120000  73431.398696  10504.267669
    6772.4200  574685.000000  72437.930533  10385.463257
    6777.9430  592519.440000  75179.883055  10809.168213
    6783.4760  594412.370000  75936.411865  10949.417999
    6789.0180  595198.810000  76529.438530  11062.195496
    6794.5690  595725.750000  77124.994442  11184.494620
    6800.2280  592533.250000  77233.012569  11233.327053
    6805.7990  560480.250000  73533.567710  10717.683121
    6811.4770  613489.810000  81070.622247  11849.570882
    6817.0670  609948.870000  81166.218638  11894.000746
    6822.7650  609936.440000  81697.365475  11999.953263
    6828.4730  610829.500000  82391.960837  12132.428020
    6834.1900  612214.120000  83152.069211  12273.434018
    6839.9180  613938.250000  83948.738202  12423.966048
    6845.6560  615451.870000  84745.847328  12571.027305
    6851.4050  616773.000000  85506.555624  12719.624626
    6857.1630  618645.690000  86369.768923  12880.759906
    6863.0310  620475.940000  87251.419362  13045.403229
    6868.8100  622305.620000  88122.626069  13212.592109
    6874.6980  624698.870000  89091.392568  13392.310857
    6880.4980  625531.620000  89836.637330  13537.544239
    6886.4070  626988.940000  90687.352205  13706.304383
    6892.3270  628536.690000  91556.603950  13871.611359
    6898.2580  629844.060000  92368.431047  14038.439770
    6904.2000  631453.870000  93251.662877  14208.791473
    6910.1520  632941.250000  94143.536893  14381.686205
    6916.1150  634609.120000  95047.831114  14564.109522
    6922.0890  635514.500000  95836.623873  14722.043186
    6928.1750  637136.440000  96769.980188  14908.519442
    6934.1710  638611.870000  97675.901222  15087.534418
    6940.2790  640485.810000  98644.252232  15281.057150
    6946.2960  642232.310000  99592.124663  15469.124844
    6952.4280  643754.310000  100528.588235  15652.726939
    6958.5690  645055.810000  101415.489934  15831.835853
    6964.6200  646677.810000  102347.838707  16014.478114
    6970.7850  647994.370000  103266.808011  16207.660617
    6976.9600  649214.440000  104192.284154  16390.371818
    6983.1470  650745.060000  105161.256958  16584.606612
    6989.3470  652348.190000  106130.710580  16782.378769
    6995.6610  653389.810000  107036.714706  16975.665947
    7001.8820  654994.940000  108023.253098  17179.511989
    7008.1160  655548.620000  108834.292463  17350.866940
    7014.4650  657471.810000  109889.782764  17561.726240
    7020.7220  658993.500000  110894.873951  17759.146359
    7027.0960  659737.750000  111767.453816  17947.097588
    7033.3760  660742.500000  112673.494008  18135.569991
    7039.7740  661835.750000  113614.076717  18333.562810
    7046.1830  663484.560000  114680.222703  18554.096179
    7052.6040  664547.870000  115647.863503  18756.154052
    7059.0390  665549.690000  116608.981670  18961.740682
    7065.4840  667107.000000  117655.569408  19182.846204
    7071.9420  668220.870000  118659.703560  19390.490444
    7078.4130  669341.250000  119669.409451  19611.674365
    7084.8960  669514.190000  120482.601887  19802.384502
    7091.3910  670096.620000  121418.336708  20004.633284
    7097.8990  670878.560000  122373.535931  20212.397161
    7104.5260  671984.000000  123383.270469  20440.669735
    7111.0590  672815.000000  124356.495349  20647.503233

