# XDI/1.0
# Column.1: energy eV
# Column.2: i0
# Column.3: itrans
# Column.4: irefer
# Beamline.name: SSRL 2-3
# Beamline.notes: vert slits = 0.6mm
# Detector.I0: N2 15cm
# Detector.I1: N2 30cm
# Detector.I2: N2 15cm
# Element.edge: K
# Element.symbol: Cr
# Mono.d_spacing: 3.13550
# Mono.name: Si(111)
# Mono.notes: unfocused, detuned 75%, clockwise at E=5990eV
# Sample.formula: Cr2S3
# Sample.name: Cr2S3
# Sample.prep: powder on tape (4 layers)
# Sample.reference: Cr foil
# Sample.temperature: 15K
# Scan.start_time: 1997-04-18 16:16:50
# ///
#    Note: mono d_spacing is nominal!
#     exafs to K16
#     396  E XMU XMUR I0
#-------------
#   energy   i0   itrans  irefer
    5759.9890  227697.800000  9071.696676  1163.299439
    5769.9800  227311.800000  9242.696234  1193.300077
    5780.0070  227175.800000  9431.698217  1226.299585
    5790.0030  226926.800000  9613.703211  1257.299917
    5799.9650  226650.800000  9799.697394  1289.300092
    5810.0340  226408.800000  9992.703881  1324.300261
    5820.0000  226092.800000  10183.701340  1357.300139
    5830.0020  225850.800000  10375.700732  1390.300074
    5839.9710  225631.800000  10576.699985  1426.299698
    5849.9750  225480.800000  10779.702969  1462.300691
    5860.0160  225266.800000  10988.700060  1498.300518
    5870.0220  225127.800000  11201.696510  1535.299139
    5879.9930  224695.800000  11400.696926  1573.300257
    5890.0000  224356.800000  11602.697820  1611.298929
    5899.9710  224036.800000  11811.697146  1649.298959
    5909.9780  223444.800000  12003.705619  1685.301372
    5920.0210  223219.800000  12224.705392  1726.300943
    5930.0260  222799.800000  12432.706366  1763.300982
    5939.9950  222510.800000  12645.705100  1802.300023
    5949.9990  222210.800000  12859.701164  1845.299290
    5959.9650  222123.800000  13078.699103  1886.299332
    5969.9670  221535.800000  13273.694263  1923.299502
    5970.4870  221461.800000  13281.699551  1923.299333
    5971.0060  221190.800000  13268.697336  1924.298869
    5971.5260  220424.800000  13239.696054  1919.300110
    5971.9720  219226.800000  13174.706411  1910.300979
    5972.4920  217816.800000  13107.706537  1902.301260
    5973.0120  218193.800000  13140.704923  1904.300327
    5973.5320  220170.800000  13264.703148  1924.300661
    5973.9780  221250.800000  13339.704645  1935.301058
    5974.4980  221476.800000  13366.704066  1941.299984
    5975.0190  221788.800000  13398.698531  1944.299150
    5975.4640  221805.800000  13405.703145  1946.300175
    5975.9850  221771.800000  13418.695555  1948.299470
    5976.5060  221527.800000  13409.696833  1947.298621
    5977.0260  221635.800000  13429.697609  1950.300560
    5977.4730  221655.800000  13437.693802  1951.299827
    5977.9940  221692.800000  13455.697735  1954.299153
    5978.5150  221365.800000  13446.697499  1953.300560
    5979.0370  221359.800000  13448.699797  1954.300701
    5979.4830  221662.800000  13480.703711  1957.300657
    5980.0050  221663.800000  13486.697369  1960.300582
    5980.5260  221315.800000  13481.705804  1959.300733
    5980.9730  221521.800000  13492.702780  1960.300944
    5981.4950  221796.800000  13523.699264  1966.300085
    5982.0160  221900.800000  13538.702492  1967.300769
    5982.4630  222013.800000  13552.696648  1968.298654
    5982.9860  221839.800000  13548.698618  1969.300689
    5983.5070  221880.800000  13564.706384  1972.301827
    5984.0300  221977.800000  13581.701066  1974.300931
    5984.4770  221837.800000  13581.702524  1974.301143
    5984.9990  221631.800000  13571.695983  1973.300352
    5985.5210  220801.800000  13526.699412  1965.299137
    5985.9700  218560.800000  13394.701746  1945.300058
    5986.4920  211625.800000  12973.705051  1883.300120
    5987.0150  198234.800000  12154.703166  1764.300310
    5987.4630  190913.800000  11708.698385  1698.300453
    5987.9860  199067.800000  12215.705626  1767.300905
    5988.5090  208451.800000  12783.698946  1845.299951
    5989.0320  213338.800000  13078.694241  1876.299549
    5989.4800  215859.800000  13209.696231  1883.299182
    5990.0030  217467.800000  13270.702602  1861.301164
    5990.5260  218205.800000  13232.694908  1804.299908
    5990.9750  218449.800000  13137.703681  1745.301360
    5991.4990  218685.800000  12995.706016  1686.300366
    5992.0210  218777.800000  12841.698904  1632.299249
    5992.4710  218988.800000  12749.698024  1595.299650
    5992.9950  219153.800000  12675.699894  1565.300419
    5993.5180  219025.800000  12629.704395  1537.299847
    5993.9670  218954.800000  12633.705926  1521.300127
    5994.4920  218987.800000  12639.704629  1506.301066
    5995.0160  219032.800000  12621.699185  1489.300416
    5995.4650  219280.800000  12578.702428  1479.300144
    5995.9890  219370.800000  12400.694123  1455.299103
    5996.5140  219182.800000  11998.697291  1407.300155
    5996.9630  219241.800000  11455.697796  1344.299730
    5997.4880  219150.800000  10613.704860  1244.301188
    5998.0120  219303.800000  9743.700593  1137.299944
    5998.5380  219141.800000  9017.697261  1042.299165
    5998.9870  219011.800000  8537.699650   971.299522
    5999.5130  219054.800000  8086.701536   904.300038
    6000.0370  219022.800000  7776.698058   850.299902
    6000.4870  218767.800000  7635.702106   821.300593
    6001.0130  217439.800000  7591.703685   798.300673
    6001.4620  216205.800000  7648.700253   791.299880
    6001.9880  215160.800000  7805.703275   795.300424
    6002.5130  216561.800000  8090.697598   810.299746
    6002.9640  217852.800000  8327.702480   825.299940
    6003.4900  218768.800000  8532.696784   833.300018
    6004.0160  218809.800000  8627.699154   833.299514
    6004.4660  218970.800000  8639.695919   828.299386
    6004.9930  219060.800000  8563.699804   813.299635
    6005.5180  218926.800000  8408.696159   790.299278
    6005.9700  218721.800000  8263.701434   771.300369
    6006.4960  218714.800000  8112.698888   750.299813
    6007.0220  218798.800000  7989.702988   731.300068
    6007.4730  218793.800000  7898.696404   716.299956
    6008.0000  218861.800000  7805.701907   701.300003
    6008.5260  218853.800000  7720.699178   686.300244
    6008.9780  218942.800000  7663.697031   676.300015
    6009.5040  219084.800000  7602.703209   664.300195
    6010.0320  218831.800000  7533.700823   652.300064
    6010.9360  218847.560000  7415.455583   636.063686
    6011.8390  218677.840000  7290.729405   630.357977
    6012.8180  218923.640000  7218.513124   638.181211
    6013.7980  218979.950000  7224.811713   654.533948
    6014.7780  219111.800000  7285.616790   672.414779
    6015.7580  218861.160000  7346.944821   686.825897
    6016.8150  218899.030000  7403.786609   690.765120
    6017.7960  218896.420000  7412.135948   685.234372
    6018.9290  219184.340000  7405.997248   677.232330
    6019.9860  219206.780000  7396.378476   669.759548
    6021.1200  219115.730000  7405.270954   666.816781
    6022.1770  219633.200000  7443.676516   671.402066
    6023.3880  220004.200000  7481.599732   680.517757
    6024.5220  220321.720000  7547.035535   690.162530
    6025.7330  220443.750000  7633.981724   698.334936
    6026.8690  220659.300000  7749.442327   706.038072
    6028.1570  221093.370000  7902.412566   712.269521
    6029.3690  221591.970000  8028.901489   719.030658
    6030.5820  221764.080000  8122.907155   722.321545
    6031.8720  222112.700000  8246.417888   729.141044
    6033.1610  222261.860000  8400.449668   741.489881
    6034.5280  222652.530000  8607.994761   759.367366
    6035.8190  223240.720000  8794.043798   773.773295
    6037.1870  223891.420000  8937.618817   785.711346
    6038.5550  224063.660000  8993.698882   789.176098
    6040.0000  224397.410000  9020.300350   787.171319
    6041.3700  225000.670000  9024.403248   784.694648
    6042.8160  225318.450000  8994.027401   786.748016
    6044.2640  226097.770000  8989.169972   786.330978
    6045.7120  226435.590000  8984.820422   791.442170
    6047.2370  226925.940000  8977.987147   794.082998
    6048.7630  227469.800000  8947.663908   797.251958
    6050.2890  227985.190000  8889.854393   798.952065
    6051.8160  228757.090000  8851.559854   801.181071
    6053.4220  229235.520000  8812.780053   808.937959
    6054.9510  229826.450000  8808.511403   817.224414
    6056.5570  230493.920000  8795.757339   824.040570
    6058.2410  231067.910000  8764.519092   826.385961
    6059.8490  231646.410000  8723.792946   829.259715
    6061.5350  232087.420000  8689.584383   829.664490
    6063.2220  232517.970000  8679.878339   830.597060
    6064.9100  233275.030000  8701.697693   830.059531
    6066.6760  233761.610000  8730.021524   825.050102
    6068.3650  234525.700000  8802.864473   823.569923
    6070.1330  235434.330000  8881.220765   819.621215
    6071.9020  236278.470000  8927.086368   814.198624
    6073.7490  237255.120000  8959.469502   812.306959
    6075.5210  238058.300000  9023.367502   821.943683
    6077.3690  238793.000000  9170.777480   846.110822
    6079.2200  239713.220000  9389.699515   877.806842
    6081.1490  240477.950000  9633.141583   916.031434
    6083.0020  241252.200000  9861.091471   949.786420
    6084.9340  242252.980000  10076.556146   983.069511
    6086.8660  243093.280000  10268.533693  1005.881466
    6088.8000  244281.090000  10444.020048  1018.222612
    6090.8130  245238.420000  10601.026968  1017.094344
    6092.8270  246417.280000  10725.545855  1006.494357
    6094.8430  247301.660000  10811.581136   990.423041
    6096.8590  248191.550000  10872.121226   976.882234
    6098.8780  249299.950000  10928.180173   963.869651
    6100.9750  250302.890000  10970.751144   958.386387
    6103.0750  251560.340000  11020.838406   966.433180
    6105.1750  252385.310000  11056.438497   984.008177
    6107.2770  253636.810000  11109.552923  1010.112148
    6109.4590  254771.810000  11121.178704  1035.745318
    6111.6430  256039.340000  11090.324977  1057.908774
    6113.8270  257256.390000  11039.979832  1070.601044
    6116.0130  258308.970000  11006.141405  1079.821151
    6118.2800  259603.050000  11008.830612  1081.573293
    6120.4700  260695.660000  11025.024828  1081.853391
    6122.7400  261894.780000  11091.730382  1084.662436
    6125.0110  263198.440000  11204.957030  1094.000622
    6127.3630  264124.590000  11343.693193  1109.867816
    6129.6390  265710.280000  11527.938712  1134.263501
    6131.9950  266910.500000  11715.706720  1160.190709
    6134.3520  268357.220000  11897.984350  1184.646009
    6136.7900  269675.470000  12037.770798  1202.629336
    6139.1510  271189.220000  12188.072457  1216.142308
    6141.5940  272488.500000  12350.893534  1230.184812
    6144.0380  273861.310000  12532.218526  1246.757038
    6146.4840  275240.620000  12709.067269  1259.857598
    6148.9320  276702.470000  12872.429980  1268.488220
    6151.4620  278045.840000  13019.301566  1274.647911
    6153.9940  279495.720000  13155.684932  1285.335764
    6156.5280  280747.120000  13289.580875  1297.553198
    6159.0640  282615.030000  13441.993548  1304.301507
    6161.6030  283910.470000  13568.920796  1304.578424
    6164.2220  285357.440000  13714.361520  1303.383493
    6166.8440  286613.910000  13835.310399  1307.717235
    6169.4700  288132.910000  13971.783992  1328.581547
    6172.0960  289937.440000  14155.768029  1362.975497
    6174.8060  291560.470000  14393.265571  1405.898259
    6177.5170  293213.030000  14660.274338  1450.349279
    6180.2310  294654.090000  14888.782723  1492.327665
    6182.9480  296336.690000  15053.827445  1522.838875
    6185.6670  297811.810000  15138.372976  1539.877360
    6188.4690  299563.440000  15211.431458  1552.446719
    6191.2730  301123.590000  15259.004358  1561.543536
    6194.0810  302990.280000  15338.096882  1576.169798
    6196.8910  304756.470000  15431.702521  1591.326585
    6199.7030  306428.190000  15539.814960  1608.011685
    6202.5990  307839.410000  15651.445092  1624.225767
    6205.4980  309195.160000  15789.602650  1646.970704
    6208.3990  311007.440000  15977.249989  1672.242993
    6211.3040  312817.220000  16147.432494  1704.045378
    6214.2100  314424.530000  16311.103613  1727.375283
    6217.2020  316295.370000  16506.306041  1753.236472
    6220.1960  318225.720000  16715.023776  1774.624662
    6223.1930  320060.590000  16930.239146  1788.542999
    6226.1930  321820.970000  17182.980655  1804.990624
    6229.1960  323586.870000  17427.241922  1819.971078
    6232.2840  325478.310000  17668.012893  1831.477143
    6235.3750  325658.250000  17822.282827  1836.510895
    6238.4690  329919.720000  18198.084697  1864.077611
    6241.5650  322498.720000  17910.393150  1828.171281
    6244.7480  331519.220000  18530.199134  1889.793921
    6247.8520  334399.250000  18799.544454  1926.946524
    6251.0410  336578.780000  19070.397003  1973.629508
    6254.2330  338579.840000  19356.744828  2029.837882
    6257.4290  340353.440000  19641.636162  2088.580413
    6260.7100  342412.530000  19912.013404  2140.848484
    6263.9130  344331.160000  20155.916512  2177.646853
    6267.2020  346115.310000  20375.332651  2207.973188
    6270.4940  348345.970000  20595.264126  2233.831232
    6273.7900  350401.160000  20776.710452  2259.217851
    6277.1720  352590.840000  20937.656646  2286.131965
    6280.4750  354220.090000  21046.124693  2303.575413
    6283.8650  356311.810000  21194.129189  2325.551507
    6287.2580  358375.090000  21388.623646  2348.054647
    6290.6550  360465.840000  21611.621339  2375.084926
    6294.0560  362585.160000  21891.148364  2410.645059
    6297.5440  364431.970000  22158.183684  2448.735808
    6300.9540  366432.310000  22417.744518  2490.356346
    6304.4500  368820.190000  22681.808948  2529.506528
    6307.9500  371008.560000  22927.387006  2562.184295
    6311.5380  372832.440000  23192.480185  2592.392245
    6315.0470  374861.870000  23468.089657  2626.128245
    6318.5600  376928.810000  23775.207516  2656.393396
    6322.1610  379043.250000  24088.831616  2686.185922
    6325.7660  381483.220000  24414.979686  2718.512527
    6329.3750  383636.720000  24735.638628  2753.365724
    6333.0730  385542.750000  25055.818645  2787.747945
    6336.6910  388091.280000  25395.514646  2829.660019
    6340.3970  390483.310000  25733.720878  2874.101858
    6344.1090  392603.910000  26033.423744  2915.071189
    6347.8260  394833.000000  26314.651904  2958.569548
    6351.5460  396987.590000  26573.408113  3001.601624
    6355.2710  399337.720000  26858.664657  3047.158372
    6359.0850  401256.370000  27156.421825  3095.243411
    6362.8190  403429.560000  27498.704651  3145.858733
    6366.6450  405636.250000  27891.495513  3211.004518
    6370.4730  407834.440000  28285.811196  3270.681287
    6374.3070  410120.190000  28662.632275  3324.882260
    6378.2300  412093.440000  29009.986122  3369.617107
    6382.0750  414624.190000  29368.819305  3418.878399
    6386.0090  417239.500000  29725.206735  3466.673184
    6389.9480  419103.280000  30023.078859  3508.990472
    6393.8930  421466.620000  30354.463704  3556.840252
    6397.8420  423787.470000  30663.379106  3601.221450
    6401.8820  425909.840000  30978.787023  3647.126804
    6405.8430  427981.720000  31285.711271  3686.562619
    6409.8940  430196.120000  31599.180848  3727.535151
    6413.9500  432301.030000  31926.142053  3771.030002
    6418.0130  434646.500000  32261.612535  3824.053773
    6422.0810  436816.440000  32606.578454  3876.606126
    6426.1530  438622.940000  32939.091285  3924.689098
    6430.3180  441288.940000  33358.107746  3977.306588
    6434.4020  443708.470000  33787.629612  4032.444419
    6438.5790  445909.500000  34248.679754  4095.119983
    6442.7610  448295.060000  34700.240983  4149.320690
    6446.9490  450770.120000  35154.284327  4218.043934
    6451.2300  452752.750000  35551.884715  4283.306126
    6455.4300  455097.840000  35997.965710  4357.090111
    6459.7230  457479.500000  36477.589108  4430.409754
    6463.9340  460044.660000  36958.718433  4507.260638
    6468.2390  462513.340000  37424.343926  4575.634601
    6472.5500  464763.530000  37865.512546  4638.540357
    6476.9550  467198.250000  38332.177451  4713.975870
    6481.2780  469074.500000  38769.335207  4781.931787
    6485.6070  471131.250000  39204.036664  4847.425395
    6490.0310  473704.530000  39688.234077  4921.447886
    6494.4610  475825.310000  40122.962088  4985.999033
    6498.8980  478020.620000  40565.172150  5051.078928
    6503.3410  480276.470000  40994.951184  5112.691190
    6507.7900  482569.810000  41406.198600  5180.826473
    6512.3350  485037.690000  41840.953105  5254.493416
    6516.7970  487396.090000  42315.274451  5328.693675
    6521.3550  489764.000000  42811.066936  5413.417762
    6525.9200  491937.440000  43273.375179  5491.676344
    6530.4920  494106.370000  43739.204055  5564.459293
    6535.0690  496373.840000  44236.549206  5639.770383
    6539.6550  498777.840000  44761.383229  5716.614652
    6544.2470  500964.340000  45261.777879  5790.988028
    6548.9360  502534.370000  45692.630907  5859.885333
    6553.5410  504377.940000  46167.028201  5926.316569
    6558.2440  506506.000000  46686.926061  6009.275364
    6562.9540  508531.590000  47218.385377  6086.768625
    6567.6710  510625.690000  47770.286119  6174.783474
    6572.3950  513265.310000  48392.743992  6274.331120
    6577.2180  515737.470000  49007.720991  6376.407538
    6581.9560  517723.120000  49549.173573  6466.012303
    6586.7920  520614.310000  50184.162040  6565.144247
    6591.5460  522922.030000  50726.698556  6655.811420
    6596.3970  524987.250000  51243.715012  6742.009168
    6601.2570  527009.000000  51761.241013  6832.732223
    6606.1250  528974.250000  52291.286649  6918.982726
    6611.0910  531466.060000  52925.821493  7016.758356
    6615.9730  533415.370000  53473.939682  7112.070610
    6620.9550  535648.190000  54076.493128  7210.913077
    6625.8530  538250.500000  54712.601911  7310.276260
    6630.8500  540464.370000  55318.185958  7407.171959
    6635.8550  542661.750000  55914.357942  7514.603026
    6640.8690  544668.690000  56505.992900  7611.564242
    6645.8910  546602.060000  57082.126249  7707.046515
    6650.9190  549017.000000  57696.782328  7814.057900
    6655.9570  550790.500000  58260.976885  7916.605528
    6661.0960  553225.440000  58926.657990  8029.671241
    6666.1500  555346.940000  59543.910714  8128.285661
    6671.3050  557520.000000  60162.628898  8231.410434
    6676.4690  559463.500000  60747.825589  8331.064914
    6681.6420  560893.560000  61301.612944  8430.264562
    6686.8220  563108.120000  61947.834529  8532.979971
    6692.0110  564189.250000  62460.649150  8628.233100
    6697.3030  563749.870000  62832.889857  8697.996051
    6702.5090  541694.000000  60818.697500  8431.310919
    6707.7240  585628.620000  66158.067077  9195.146904
    6713.0420  580735.810000  66053.890886  9204.513278
    6718.3690  580872.500000  66527.226408  9290.406267
    6723.7050  581800.750000  67098.053537  9386.824294
    6729.0490  583136.440000  67726.476548  9495.786651
    6734.4030  583105.690000  68224.344346  9599.264264
    6739.7660  589894.500000  69523.700397  9809.268533
    6745.1370  588603.750000  69867.612881  9887.815157
    6750.6140  574526.560000  68650.082072  9742.885513
    6756.0030  581734.940000  70047.032861  9968.487969
    6761.4980  584081.750000  70834.484824  10111.616950
    6766.9060  598180.120000  73015.439049  10450.271016
    6772.4200  584491.000000  71856.881439  10315.456310
    6777.9430  603244.440000  74701.897074  10745.171466
    6783.4760  603818.370000  75276.382545  10854.409911
    6789.0180  604921.810000  75908.465266  10974.190635
    6794.5690  605416.750000  76476.925193  11082.486438
    6800.2280  602871.250000  76673.999258  11140.327785
    6805.7990  570384.250000  73015.537175  10634.678911
    6811.4770  624624.810000  80534.620918  11758.579748
    6817.0670  621408.870000  80675.204361  11814.992444
    6822.7650  621448.440000  81267.318310  11932.943623
    6828.4730  622188.500000  81922.944274  12054.428484
    6834.1900  624076.120000  82724.048197  12207.424694
    6839.9180  625427.250000  83477.740559  12356.966785
    6845.6560  626097.870000  84161.847479  12481.027618
    6851.4050  627856.000000  84988.575435  12633.636757
    6857.1630  630297.690000  85919.707944  12799.744779
    6863.0310  632028.940000  86771.409541  12956.404012
    6868.8100  634273.620000  87717.676773  13134.593025
    6874.6980  635829.870000  88571.401874  13303.312010
    6880.4980  637454.620000  89434.640985  13471.550483
    6886.4070  638486.940000  90200.342220  13623.308977
    6892.3270  640506.690000  91119.658037  13803.615716
    6898.2580  641695.060000  91930.440212  13970.447510
    6904.2000  643704.870000  92889.660698  14151.793210
    6910.1520  644879.250000  93727.542545  14314.687241
    6916.1150  646486.120000  94620.838179  14485.102805
    6922.0890  647174.500000  95379.623403  14638.045046
    6928.1750  648945.440000  96340.967660  14826.522613
    6934.1710  650550.870000  97243.826161  15006.515842
    6940.2790  651573.810000  98071.193828  15179.057512
    6946.2960  653125.310000  99011.104429  15363.122730
    6952.4280  654360.310000  99876.570885  15542.716436
    6958.5690  655402.810000  100731.445865  15718.840484
    6964.6200  656958.810000  101658.923471  15903.485872
    6970.7850  658329.370000  102557.782187  16087.657585
    6976.9600  660499.440000  103629.317383  16290.388578
    6983.1470  661762.060000  104550.275957  16484.607477
    6989.3470  662725.190000  105418.738985  16667.378228
    6995.6610  663766.810000  106303.679392  16848.672967
    7001.8820  665232.940000  107281.290164  17046.506153
    7008.1160  666854.620000  108263.282468  17240.858503
    7014.4650  667271.810000  109070.828522  17420.740413
    7020.7220  668761.500000  110035.879989  17617.161185
    7027.0960  670104.750000  111017.410842  17814.095812
    7033.3760  671049.500000  111911.446772  18007.564232
    7039.7740  672388.750000  112885.120662  18205.571439
    7046.1830  674265.560000  113965.188673  18422.100155
    7052.6040  675681.870000  114981.857927  18637.158539
    7059.0390  676468.690000  115909.899889  18834.742397
    7065.4840  678019.000000  116976.646364  19059.874451
    7071.9420  678896.870000  117923.750205  19264.503987
    7078.4130  679751.250000  118892.404759  19474.675367
    7084.8960  680548.190000  119859.669203  19676.393843
    7091.3910  681447.620000  120825.262261  19883.622209
    7097.8990  682647.560000  121852.550195  20102.389907
    7104.5260  683081.000000  122767.269722  20310.671691
    7111.0590  684360.000000  123828.444424  20536.485711

