# XDI/1.0
# Column.1: energy eV
# Column.2: i0
# Column.3: itrans
# Column.4: irefer
# Beamline.name: SSRL 2-3
# Beamline.notes: vert slits = 0.6mm
# Detector.I0: N2 15cm
# Detector.I1: N2 30cm
# Detector.I2: N2 15cm
# Element.edge: K
# Element.symbol: Cr
# Mono.d_spacing: 3.13550
# Mono.name: Si(111)
# Mono.notes: unfocused, detuned 75%, clockwise at E=5990eV
# Sample.formula: CrO2
# Sample.name: CrO2
# Sample.prep: powder on tape (4 layers)
# Sample.reference: Cr foil
# Sample.temperature: 15K
# Scan.start_time: 1997-04-18 13:47:10
# ///
#    Note: mono d_spacing is nominal!
#     exafs to K16
#     396  E XMU XMUR I0
#-------------
#   energy   i0   itrans  irefer
    5759.9890  138773.800000  8919.699605  1128.300219
    5769.9800  138217.800000  9051.701055  1152.299720
    5780.0070  137736.800000  9186.698454  1178.299877
    5790.0030  137161.800000  9312.701778  1201.299936
    5799.9650  136450.800000  9436.697804  1223.299982
    5810.0340  136093.800000  9584.702653  1249.299949
    5820.0000  135385.800000  9707.700927  1274.300602
    5830.0020  134862.800000  9844.697303  1301.300261
    5839.9710  134143.800000  9966.698233  1326.300329
    5849.9750  133621.800000  10103.697252  1353.299144
    5860.0160  132991.800000  10236.701742  1379.300480
    5870.0220  132333.800000  10370.699959  1404.299383
    5879.9930  131745.800000  10499.696042  1431.298835
    5890.0000  131136.800000  10637.697426  1458.299532
    5899.9710  130576.800000  10769.699179  1486.299627
    5909.9780  129802.800000  10889.699862  1510.300104
    5920.0210  129167.800000  11020.700129  1539.299333
    5930.0260  128422.800000  11144.698852  1563.299959
    5939.9950  127701.800000  11258.696570  1589.300303
    5949.9990  127087.800000  11388.694880  1615.299173
    5959.9650  126313.800000  11499.703898  1640.300222
    5969.9670  125565.800000  11617.701472  1666.300541
    5970.4870  125522.800000  11622.703870  1666.301359
    5971.0060  125414.800000  11624.705799  1667.300153
    5971.5260  125234.800000  11615.697027  1667.299706
    5971.9720  124875.800000  11592.700622  1663.300104
    5972.4920  124148.800000  11535.703132  1656.301072
    5973.0120  123427.800000  11479.701281  1648.299862
    5973.5320  123903.800000  11519.698212  1655.300326
    5973.9780  124951.800000  11626.698670  1672.300232
    5974.4980  125693.800000  11702.702413  1682.299808
    5975.0190  125879.800000  11735.700061  1688.300638
    5975.4640  125914.800000  11742.696675  1690.299087
    5975.9850  125805.800000  11743.706125  1689.300348
    5976.5060  125922.800000  11765.705905  1691.300942
    5977.0260  125956.800000  11775.698880  1693.299498
    5977.4730  125878.800000  11777.695598  1693.298733
    5977.9940  126057.800000  11801.699328  1697.299624
    5978.5150  126052.800000  11815.696588  1699.299091
    5979.0370  126087.800000  11827.702975  1700.299632
    5979.4830  125983.800000  11824.697200  1699.299874
    5980.0050  126039.800000  11837.704454  1702.300770
    5980.5260  125900.800000  11833.698841  1702.300030
    5980.9730  125945.800000  11845.696720  1704.300318
    5981.4950  125906.800000  11851.695656  1705.299834
    5982.0160  125951.800000  11868.695386  1707.298496
    5982.4630  126036.800000  11880.696353  1710.300229
    5982.9860  125975.800000  11888.705420  1711.300872
    5983.5070  126419.800000  11935.702458  1716.300522
    5984.0300  125791.800000  11884.703574  1712.301136
    5984.4770  125673.800000  11879.695248  1710.299773
    5984.9990  125860.800000  11905.703063  1713.300341
    5985.5210  126177.800000  11946.699209  1716.300365
    5985.9700  125245.800000  11860.697541  1706.299868
    5986.4920  124429.800000  11799.695210  1697.299912
    5987.0150  121350.800000  11524.699614  1656.300539
    5987.4630  116902.800000  11110.702359  1595.300022
    5987.9860  110988.800000  10546.702959  1515.299782
    5988.5090  112725.800000  10697.695251  1533.300070
    5989.0320  116893.800000  11112.702577  1587.300588
    5989.4800  119424.800000  11363.697956  1620.299299
    5990.0030  121411.800000  11564.696741  1637.299230
    5990.5260  122432.800000  11670.698607  1628.299645
    5990.9750  122973.800000  11721.705858  1605.301075
    5991.4990  123218.800000  11743.696598  1559.299430
    5992.0210  123197.800000  11735.696663  1516.300056
    5992.4710  123440.800000  11753.695349  1492.298709
    5992.9950  123522.800000  11753.696119  1466.299316
    5993.5180  123329.800000  11731.705728  1438.300298
    5993.9670  123515.800000  11748.705721  1425.301091
    5994.4920  123503.800000  11739.696060  1404.299953
    5995.0160  123505.800000  11739.698334  1388.300196
    5995.4650  123491.800000  11735.703274  1380.299849
    5995.9890  123541.800000  11743.695699  1371.299130
    5996.5140  123373.800000  11738.696426  1365.299436
    5996.9630  123339.800000  11748.694735  1365.299950
    5997.4880  123517.800000  11779.694867  1369.299473
    5998.0120  123230.800000  11762.706021  1366.300907
    5998.5380  123052.800000  11749.697923  1359.299552
    5998.9870  123114.800000  11759.697901  1350.299275
    5999.5130  123096.800000  11755.697747  1328.300144
    6000.0370  122963.800000  11728.702035  1300.299995
    6000.4870  122755.800000  11686.695010  1273.300077
    6001.0130  122850.800000  11655.703266  1243.300592
    6001.4620  122308.800000  11557.701304  1209.300380
    6001.9880  121546.800000  11411.702612  1172.299698
    6002.5130  120924.800000  11271.696677  1137.299810
    6002.9640  121750.800000  11284.705719  1122.300204
    6003.4900  122934.800000  11308.697654  1109.299942
    6004.0160  123276.800000  11252.701504  1090.300377
    6004.4660  123311.800000  11174.697906  1071.300260
    6004.9930  123260.800000  11090.705729  1052.300201
    6005.5180  123138.800000  11013.702445  1033.300631
    6005.9700  122853.800000  10934.697940  1017.299971
    6006.4960  122874.800000  10867.698518  1003.299382
    6007.0220  122760.800000  10772.695587   986.299465
    6007.4730  122818.800000  10699.704224   970.300073
    6008.0000  122709.800000  10584.696358   950.299784
    6008.5260  122656.800000  10465.699667   931.300029
    6008.9780  122750.800000  10372.699265   916.299763
    6009.5040  122911.800000  10250.700298   895.300400
    6010.0320  122783.800000  10102.703741   873.300196
    6010.9360  122551.560000  9892.459887   841.064304
    6011.8390  122550.840000  9806.730781   827.358622
    6012.8180  122593.640000  9789.507474   837.180271
    6013.7980  122608.950000  9806.809805   860.534150
    6014.7780  122459.800000  9851.619056   886.414870
    6015.7580  122357.150000  9926.949467   908.826772
    6016.8150  122413.030000  10025.780431   921.764804
    6017.7960  122524.420000  10108.133098   928.233796
    6018.9290  122672.340000  10175.001700   922.233253
    6019.9860  122765.770000  10233.383119   919.759764
    6021.1200  122701.730000  10311.269786   915.817153
    6022.1770  122762.200000  10393.682303   922.402270
    6023.3880  122766.200000  10447.604666   931.518465
    6024.5220  122893.710000  10464.031818   938.161505
    6025.7330  123012.750000  10459.984832   942.335424
    6026.8690  122935.300000  10433.441755   940.038169
    6028.1570  123210.370000  10434.412308   932.270025
    6029.3690  123356.960000  10452.898059   925.030348
    6030.5820  123520.080000  10519.900341   926.320246
    6031.8720  123656.700000  10629.425840   931.141690
    6033.1610  123758.860000  10748.443946   938.489130
    6034.5280  123867.520000  10864.989066   948.366363
    6035.8190  123966.720000  10974.047231   956.774203
    6037.1870  124250.420000  11092.620254   966.711711
    6038.5550  124447.660000  11203.701625   974.176506
    6040.0000  124623.410000  11315.296353   979.170465
    6041.3700  124755.670000  11384.402132   980.694960
    6042.8160  124934.450000  11445.025710   986.747794
    6044.2640  125192.770000  11481.174677   995.331640
    6045.7120  125336.590000  11485.815490   998.442053
    6047.2370  125647.940000  11511.987331  1005.082743
    6048.7630  125911.800000  11552.659403  1013.251698
    6050.2890  126174.190000  11604.853463  1023.951756
    6051.8160  126238.090000  11649.563681  1035.181452
    6053.4220  126481.520000  11700.776540  1051.938035
    6054.9510  126649.460000  11727.518782  1068.225769
    6056.5570  127031.920000  11766.757484  1082.040265
    6058.2410  127338.910000  11778.526845  1094.386700
    6059.8490  127525.410000  11778.792148  1101.259626
    6061.5350  127622.430000  11768.578480  1108.663393
    6063.2220  127726.970000  11776.887672  1111.597243
    6064.9100  128035.030000  11813.700276  1113.059910
    6066.6760  128380.610000  11849.022413  1110.050342
    6068.3650  128775.710000  11881.864059  1102.569328
    6070.1330  129168.330000  11914.217531  1090.620104
    6071.9020  129516.470000  11940.094882  1078.198998
    6073.7490  129781.120000  11990.472057  1072.306932
    6075.5210  130236.300000  12084.365296  1083.943189
    6077.3690  130530.000000  12169.783113  1104.111661
    6079.2200  130785.220000  12260.705034  1125.807365
    6081.1490  131194.950000  12357.131983  1152.030900
    6083.0020  131589.200000  12445.087275  1179.785861
    6084.9340  132023.980000  12536.552445  1205.068694
    6086.8660  132485.280000  12625.524829  1223.880495
    6088.8000  132908.090000  12710.022262  1231.222818
    6090.8130  133232.420000  12777.031205  1219.094197
    6092.8270  133607.280000  12851.541312  1199.493939
    6094.8430  134091.660000  12940.573344  1181.422943
    6096.8590  134512.550000  13029.128480  1165.882724
    6098.8780  135002.950000  13122.176087  1151.869909
    6100.9750  135362.890000  13216.753721  1145.386628
    6103.0750  135934.340000  13336.837922  1154.432608
    6105.1750  136399.310000  13444.440660  1177.008072
    6107.2770  136819.810000  13537.556754  1210.111864
    6109.4590  137404.810000  13627.180800  1245.745800
    6111.6430  137865.340000  13697.322991  1281.909049
    6113.8270  138432.390000  13775.973824  1315.600279
    6116.0130  139058.970000  13891.151959  1340.822307
    6118.2800  139418.050000  13983.820370  1358.571763
    6120.4700  139999.660000  14122.015943  1370.852754
    6122.7400  140516.780000  14262.731012  1378.662619
    6125.0110  141031.440000  14406.951660  1390.000135
    6127.3630  141493.590000  14542.689329  1404.868095
    6129.6390  141931.280000  14662.936697  1426.263371
    6131.9950  142609.480000  14789.699895  1447.190348
    6134.3520  142925.220000  14880.975074  1465.645202
    6136.7900  143485.450000  14973.764499  1481.628227
    6139.1510  144046.220000  15064.066718  1491.141927
    6141.5940  144653.500000  15165.896071  1498.184778
    6144.0380  145251.310000  15264.218276  1504.756987
    6146.4840  145742.620000  15361.066967  1509.857370
    6148.9320  146292.470000  15449.425792  1511.488364
    6151.4620  146848.830000  15538.296060  1510.647989
    6153.9940  147489.720000  15635.679942  1514.335121
    6156.5280  148084.110000  15729.586402  1522.554358
    6159.0640  148674.030000  15847.998128  1525.301646
    6161.6030  149619.470000  16009.930791  1529.578495
    6164.2220  150100.440000  16131.367525  1523.383229
    6166.8440  150564.910000  16250.314897  1525.718256
    6169.4700  151503.910000  16413.783402  1543.581604
    6172.0960  152250.420000  16554.759858  1574.973844
    6174.8060  152970.470000  16710.259903  1612.896928
    6177.5170  153723.020000  16874.260467  1651.348805
    6180.2310  154243.090000  17021.782789  1687.329100
    6182.9480  154583.690000  17140.817929  1716.838696
    6185.6670  155351.810000  17315.365507  1746.876414
    6188.4690  155987.450000  17473.431989  1771.446696
    6191.2730  156922.590000  17664.016893  1795.545053
    6194.0810  157465.280000  17811.102335  1814.169867
    6196.8910  158214.470000  17972.710383  1838.328101
    6199.7030  158869.190000  18117.823169  1859.011991
    6202.5990  159654.410000  18274.443280  1881.225717
    6205.4980  160356.170000  18421.591058  1902.969201
    6208.3990  160979.440000  18560.258498  1928.243828
    6211.3040  161645.230000  18720.421663  1954.043852
    6214.2100  162465.550000  18908.110922  1983.377063
    6217.2020  163179.370000  19076.305691  2010.235793
    6220.1960  163706.720000  19224.019912  2024.625073
    6223.1930  164424.590000  19402.250134  2036.543577
    6226.1930  165200.980000  19586.994367  2048.993697
    6229.1960  165830.890000  19758.238313  2052.970018
    6232.2840  166576.310000  19938.998204  2060.477028
    6235.3750  167245.270000  20104.293869  2062.513568
    6238.4690  169059.730000  20400.085345  2082.077273
    6241.5650  167240.720000  20259.386392  2055.171320
    6244.7480  168750.220000  20520.197263  2080.792089
    6247.8520  170340.250000  20822.536950  2114.945211
    6251.0410  171643.800000  21093.383207  2159.626736
    6254.2330  172368.860000  21275.745510  2203.838726
    6257.4290  173225.440000  21471.637272  2255.579372
    6260.7100  174005.550000  21652.007932  2301.847808
    6263.9130  174669.170000  21817.921683  2334.647060
    6267.2020  175461.310000  22020.339804  2364.975264
    6270.4940  176056.970000  22204.270513  2384.831891
    6273.7900  176927.160000  22409.704966  2415.216962
    6277.1720  177781.860000  22613.663271  2445.132450
    6280.4750  178503.080000  22791.139818  2471.578106
    6283.8650  179181.810000  22980.108380  2497.549344
    6287.2580  180139.080000  23217.614104  2529.053746
    6290.6550  181102.860000  23460.640793  2559.088543
    6294.0560  182135.160000  23704.147879  2589.645643
    6297.5440  183037.970000  23934.181313  2623.736948
    6300.9540  183866.310000  24152.742082  2659.355812
    6304.4500  184686.170000  24376.803557  2694.506326
    6307.9500  185758.550000  24638.387943  2730.185927
    6311.5380  186557.450000  24862.489815  2759.394398
    6315.0470  186838.860000  25017.098576  2782.129201
    6318.5600  187618.800000  25237.203742  2801.394264
    6322.1610  188348.250000  25456.844422  2819.187275
    6325.7660  189255.230000  25705.000047  2841.515474
    6329.3750  189783.720000  25903.655766  2863.366722
    6333.0730  190563.730000  26141.829109  2890.749119
    6336.6910  191309.270000  26375.520684  2917.661191
    6340.3970  191774.330000  26554.714862  2943.102556
    6344.1090  192683.890000  26800.431027  2979.072381
    6347.8260  193454.980000  27035.662394  3016.571205
    6351.5460  193991.590000  27252.405913  3054.600478
    6355.2710  194665.730000  27491.665404  3093.158950
    6359.0850  195291.370000  27744.417492  3136.243194
    6362.8190  195972.550000  27980.717113  3179.861360
    6366.6450  196986.230000  28274.513839  3237.005998
    6370.4730  197728.450000  28511.816767  3284.681281
    6374.3070  198620.190000  28793.636506  3325.883683
    6378.2300  198862.420000  28980.993798  3355.618915
    6382.0750  200192.200000  29319.824903  3400.878923
    6386.0090  200850.480000  29562.206871  3435.672725
    6389.9480  201612.300000  29810.078655  3470.992396
    6393.8930  202282.620000  30045.467825  3506.841688
    6397.8420  202811.470000  30271.383530  3540.223385
    6401.8820  203622.830000  30545.806518  3578.130331
    6405.8430  204394.720000  30822.718333  3616.566251
    6409.8940  205255.120000  31111.162985  3656.533960
    6413.9500  206238.050000  31428.121590  3698.029404
    6418.0130  207337.480000  31741.589857  3744.053335
    6422.0810  207949.450000  32007.588692  3787.609273
    6426.1530  208534.940000  32249.082884  3826.691551
    6430.3180  208902.940000  32478.091105  3858.304129
    6434.4020  209735.450000  32780.635982  3895.445206
    6438.5790  210461.500000  33074.670195  3932.116138
    6442.7610  211194.060000  33368.235897  3971.319576
    6446.9490  211584.140000  33613.297393  4011.048765
    6451.2300  212384.730000  33942.889582  4063.307894
    6455.4300  212954.860000  34211.991743  4113.096776
    6459.7230  213540.500000  34488.588811  4163.410251
    6463.9340  214202.660000  34784.732743  4214.258161
    6468.2390  214739.330000  35061.367172  4260.637828
    6472.5500  215527.530000  35365.495832  4305.536062
    6476.9550  216007.250000  35642.151628  4351.971548
    6481.2780  216681.480000  35931.359617  4402.935340
    6485.6070  216979.250000  36177.042293  4441.427025
    6490.0310  217638.520000  36470.237659  4494.446490
    6494.4610  218466.310000  36806.954747  4546.000407
    6498.8980  218909.620000  37076.188738  4588.081444
    6503.3410  218497.470000  37190.949383  4610.689609
    6507.7900  217873.810000  37297.191987  4634.827780
    6512.3350  218517.690000  37622.977684  4690.494305
    6516.7970  219506.080000  37989.238849  4751.688039
    6521.3550  220692.000000  38412.044309  4824.417800
    6525.9200  221969.420000  38858.374935  4896.676084
    6530.4920  222922.370000  39230.189640  4957.455446
    6535.0690  223516.840000  39559.535221  5010.770812
    6539.6550  223199.840000  39716.372716  5044.610843
    6544.2470  223061.360000  39899.743311  5078.982217
    6548.9360  223521.370000  40206.634716  5128.883657
    6553.5410  224500.940000  40610.022439  5188.314547
    6558.2440  225500.000000  41026.949635  5249.275982
    6562.9540  225909.590000  41329.348911  5301.765482
    6567.6710  226323.700000  41624.305996  5355.784948
    6572.3950  227077.330000  41999.748084  5425.329421
    6577.2180  227680.470000  42335.721037  5481.409076
    6581.9560  227785.140000  42575.195406  5527.014610
    6586.7920  228075.330000  42850.185287  5579.147401
    6591.5460  228408.030000  43133.701753  5627.817068
    6596.3970  228996.250000  43473.720447  5695.005871
    6601.2570  229570.000000  43816.216732  5753.728008
    6606.1250  229890.270000  44114.260967  5804.979642
    6611.0910  229518.050000  44293.842666  5839.759857
    6615.9730  230145.340000  44653.916650  5906.072284
    6620.9550  230768.170000  45040.478763  5965.910078
    6625.8530  231207.520000  45373.610169  6022.278417
    6630.8500  232137.370000  45807.201122  6099.173734
    6635.8550  231500.750000  45929.339298  6129.603790
    6640.8690  231745.660000  46221.981602  6189.562943
    6645.8910  232526.080000  46644.144089  6259.049840
    6650.9190  233327.020000  47057.816729  6330.061735
    6655.9570  233738.480000  47407.994913  6395.604027
    6661.0960  233903.450000  47696.662332  6452.672741
    6666.1500  234420.950000  48049.870045  6517.275567
    6671.3050  234528.970000  48348.592929  6580.410436
    6676.4690  233922.520000  48485.847412  6608.072115
    6681.6420  231335.560000  48192.591077  6582.260959
    6686.8220  231508.140000  48489.827559  6638.977993
    6692.0110  231195.230000  48693.643848  6682.228269
    6697.3030  230144.860000  48760.908512  6704.003845
    6702.5090  222014.000000  47337.720107  6526.308327
    6707.7240  248880.640000  53321.062614  7368.148284
    6713.0420  238958.830000  51462.854608  7125.509823
    6718.3690  237551.520000  51438.222590  7139.405619
    6723.7050  237106.730000  51612.060578  7183.827919
    6729.0490  236728.470000  51824.436655  7230.779089
    6734.4030  235943.720000  51950.342064  7272.268670
    6739.7660  238697.480000  52807.750838  7405.277903
    6745.1370  237081.780000  52793.661962  7424.817794
    6750.6140  233027.590000  52115.054376  7352.885775
    6756.0030  231113.920000  52004.993828  7356.481410
    6761.4980  239383.770000  54246.474077  7694.617022
    6766.9060  240820.140000  54836.407720  7797.267469
    6772.4200  235447.030000  53907.896096  7686.457103
    6777.9430  241592.440000  55611.898167  7959.173591
    6783.4760  240236.360000  55603.395640  7982.417193
    6789.0180  240066.810000  55889.429160  8038.192622
    6794.5690  240179.780000  56229.960861  8110.493574
    6800.2280  238075.270000  56060.018973  8105.322010
    6805.7990  230647.280000  54573.565501  7914.682804
    6811.4770  252671.800000  60152.644912  8752.579119
    6817.0670  247706.840000  59328.212408  8646.995765
    6822.7650  246420.410000  59350.352538  8674.945653
    6828.4730  245753.500000  59513.965604  8716.423468
    6834.1900  245756.090000  59846.056494  8792.424865
    6839.9180  245814.220000  60192.697885  8867.962361
    6845.6560  245909.860000  60551.911958  8945.038724
    6851.4050  245625.030000  60822.580192  9008.630883
    6857.1630  245827.720000  61224.716073  9091.755059
    6863.0310  243986.910000  61106.459231  9100.410991
    6868.8100  244289.640000  61531.643472  9188.590676
    6874.6980  245139.870000  62102.357154  9292.298563
    6880.4980  245415.640000  62530.614132  9381.543136
    6886.4070  246185.920000  63096.356288  9489.311148
    6892.3270  246040.720000  63405.654850  9558.616994
    6898.2580  245707.030000  63686.390590  9629.438255
    6904.2000  246084.870000  64149.703972  9727.797185
    6910.1520  246593.230000  64647.480753  9825.687570
    6916.1150  246488.110000  64972.802355  9911.104122
    6922.0890  246149.500000  65257.636571  9974.043564
    6928.1750  245843.420000  65535.031335  10057.522170
    6934.1710  245958.860000  65961.898916  10146.535185
    6940.2790  246262.810000  66409.246347  10244.062803
    6946.2960  246138.300000  66746.147021  10322.124209
    6952.4280  246070.280000  67101.552860  10405.715122
    6958.5690  245902.800000  67446.476049  10487.838375
    6964.6200  246271.830000  67923.897624  10592.486467
    6970.7850  245113.390000  67978.801900  10620.668061
    6976.9600  244342.450000  68134.297786  10676.378934
    6983.1470  244626.050000  68605.226371  10774.602216
    6989.3470  244845.160000  69037.719230  10872.373285
    6995.6610  244833.800000  69417.751007  10961.680642
    7001.8820  244726.940000  69761.275139  11043.511472
    7008.1160  244849.610000  70183.285566  11139.854633
    7014.4650  245033.800000  70622.808593  11229.734879
    7020.7220  245157.520000  71065.852183  11334.146039
    7027.0960  245255.750000  71479.417679  11423.087693
    7033.3760  245355.480000  71897.471537  11518.565186
    7039.7740  245501.770000  72340.067310  11619.563161
    7046.1830  245771.550000  72801.200535  11718.097550
    7052.6040  245909.860000  73237.826724  11824.161775
    7059.0390  246074.690000  73686.978990  11926.753950
    7065.4840  245488.030000  73912.590710  11985.854807
    7071.9420  245839.890000  74428.763282  12106.511767
    7078.4130  245686.280000  74780.446286  12196.687976
    7084.8960  245575.190000  75150.605490  12288.393184
    7091.3910  245476.610000  75532.321784  12376.625678
    7097.8990  245462.550000  75946.518587  12472.389856
    7104.5260  245437.020000  76329.261956  12573.675428
    7111.0590  245275.000000  76685.529738  12655.501604
