# XDI/1.0
# Column.1: energy eV
# Column.2: i0
# Column.3: itrans
# Column.4: irefer
# Beamline.name: SSRL 2-3
# Beamline.notes: vert slits = 0.6mm
# Detector.I0: N2 15cm
# Detector.I1: N2 30cm
# Detector.I2: N2 15cm
# Element.edge: K
# Element.symbol: Cr
# Mono.d_spacing: 3.13550
# Mono.name: Si(111)
# Mono.notes: unfocused, detuned 75%, clockwise at E=5990eV
# Sample.formula: CrO2
# Sample.name: CrO2
# Sample.prep: powder on tape (4 layers)
# Sample.reference: Cr foil
# Sample.temperature: room temp
# Scan.start_time: 1997-04-17 19:39:50
# ///
#    Note: mono d_spacing is nominal!
#     exafs to K16
#     396  E XMU XMUR I0
#-------------
#   energy   i0   itrans  irefer
    5759.9890  25548.900000  22358.500021  2841.700279
    5769.9800  25512.900000  22705.500470  2901.701261
    5780.0070  25476.900000  23058.500098  2966.700728
    5790.0030  25419.900000  23394.499996  3026.700105
    5799.9650  25374.900000  23741.500114  3093.699353
    5810.0340  25330.900000  24093.499995  3158.698559
    5820.0000  25274.900000  24444.499919  3221.700219
    5830.0020  25226.900000  24796.500033  3289.700462
    5839.9710  25190.900000  25158.499989  3357.698642
    5849.9750  25150.900000  25529.500126  3428.701614
    5860.0160  25101.900000  25899.499922  3498.700663
    5870.0220  25046.900000  26258.500032  3569.700674
    5879.9930  24990.900000  26634.500019  3638.699613
    5890.0000  24936.900000  26989.500074  3711.699672
    5899.9710  24859.900000  27329.499964  3780.698207
    5909.9780  24807.900000  27698.499743  3854.700262
    5920.0210  24751.900000  28074.498953  3928.700280
    5930.0260  24698.900000  28441.498921  4003.701500
    5939.9950  24639.900000  28804.498712  4076.698951
    5949.9990  24604.900000  29188.500409  4156.701330
    5959.9650  24550.900000  29560.500082  4230.698094
    5969.9670  24474.900000  29883.500418  4297.702178
    5970.4870  24436.900000  29871.501088  4295.701558
    5971.0060  24400.900000  29850.500798  4293.699076
    5971.5260  24342.900000  29801.499943  4288.700297
    5971.9720  24236.900000  29690.501066  4272.700937
    5972.4920  24090.900000  29535.501363  4251.700310
    5973.0120  24105.900000  29568.500542  4256.701752
    5973.5320  24259.900000  29782.500262  4285.700352
    5973.9780  24422.900000  29990.498558  4320.700823
    5974.4980  24462.900000  30071.500144  4330.698668
    5975.0190  24491.900000  30118.501498  4341.698585
    5975.4640  24471.900000  30116.500790  4340.698242
    5975.9850  24502.900000  30179.499757  4347.699601
    5976.5060  24473.900000  30156.498641  4345.698232
    5977.0260  24477.900000  30187.501154  4351.701725
    5977.4730  24480.900000  30215.499514  4354.701307
    5977.9940  24488.900000  30249.499947  4361.698971
    5978.5150  24444.900000  30217.499349  4356.701373
    5979.0370  24462.900000  30254.498499  4362.698920
    5979.4830  24472.900000  30285.500993  4368.698256
    5980.0050  24486.900000  30318.499800  4374.700589
    5980.5260  24472.900000  30330.499272  4374.699286
    5980.9730  24484.900000  30354.500738  4379.698126
    5981.4950  24485.900000  30385.500630  4384.701461
    5982.0160  24487.900000  30406.500506  4388.701590
    5982.4630  24495.900000  30437.498654  4394.700383
    5982.9860  24487.900000  30446.499177  4394.698895
    5983.5070  24519.900000  30504.500581  4401.701773
    5984.0300  24511.900000  30519.499705  4404.698508
    5984.4770  24497.900000  30521.501413  4402.701807
    5984.9990  24491.900000  30538.499022  4406.700179
    5985.5210  24436.900000  30492.501015  4400.700730
    5985.9700  24247.900000  30263.501507  4365.699444
    5986.4920  23751.900000  29660.500979  4276.698046
    5987.0150  22624.900000  28267.500985  4070.699165
    5987.4630  21385.900000  26739.498755  3847.700997
    5987.9860  21590.900000  27020.499796  3883.698144
    5988.5090  22748.900000  28492.499938  4086.700385
    5989.0320  23393.900000  29314.500893  4188.699503
    5989.4800  23720.900000  29734.500840  4224.699002
    5990.0030  23941.900000  30024.501412  4217.699183
    5990.5260  24050.900000  30177.500130  4140.699015
    5990.9750  24118.900000  30259.499418  4044.699124
    5991.4990  24157.900000  30287.498868  3937.700993
    5992.0210  24167.900000  30268.501168  3852.701561
    5992.4710  24186.900000  30266.499212  3792.701129
    5992.9950  24198.900000  30283.499026  3736.700406
    5993.5180  24209.900000  30300.500800  3681.698669
    5993.9670  24198.900000  30279.498840  3637.700960
    5994.4920  24216.900000  30273.499823  3596.699921
    5995.0160  24223.900000  30288.501411  3563.699352
    5995.4650  24228.900000  30291.499710  3545.698347
    5995.9890  24205.900000  30285.498637  3530.699483
    5996.5140  24204.900000  30314.501398  3529.701096
    5996.9630  24224.900000  30364.498995  3535.699400
    5997.4880  24213.900000  30384.501169  3537.699469
    5998.0120  24187.900000  30378.499598  3527.700027
    5998.5380  24212.900000  30405.501091  3501.699944
    5998.9870  24201.900000  30379.500111  3457.701433
    5999.5130  24189.900000  30337.500595  3389.700572
    6000.0370  24159.900000  30238.499609  3307.699504
    6000.4870  24153.900000  30148.499610  3239.701376
    6001.0130  24079.900000  29912.500430  3145.700084
    6001.4620  23948.900000  29601.498759  3060.701058
    6001.9880  23804.900000  29224.501264  2966.700646
    6002.5130  23827.900000  29051.501335  2901.701134
    6002.9640  23952.900000  29024.500035  2865.699008
    6003.4900  24093.900000  28965.500864  2823.701171
    6004.0160  24173.900000  28830.499545  2778.699017
    6004.4660  24174.900000  28657.500453  2735.699618
    6004.9930  24185.900000  28494.500927  2690.699289
    6005.5180  24167.900000  28309.499123  2648.701199
    6005.9700  24165.900000  28164.500814  2614.699949
    6006.4960  24160.900000  27963.500997  2571.699911
    6007.0220  24173.900000  27739.501347  2527.699091
    6007.4730  24148.900000  27487.499300  2484.701000
    6008.0000  24142.900000  27208.500450  2434.699745
    6008.5260  24156.900000  26914.499428  2385.698977
    6008.9780  24179.900000  26655.500033  2343.699138
    6009.5040  24138.900000  26267.500093  2287.701123
    6010.0320  24143.900000  25956.500007  2238.699373
    6010.9360  24145.664000  25617.256066  2175.464466
    6011.8390  24144.951000  25480.521051  2167.757623
    6012.8180  24130.768000  25453.297102  2206.581062
    6013.7980  24139.107000  25565.584011  2274.931797
    6014.7780  24147.975000  25738.381095  2340.813002
    6015.7580  24165.367000  25979.688013  2395.222198
    6016.8150  24166.285000  26209.506015  2423.159264
    6017.7960  24177.730000  26367.834088  2422.627904
    6018.9290  24203.701000  26524.674032  2408.623435
    6019.9860  24222.197000  26694.020905  2395.146994
    6021.1200  24217.219000  26900.880249  2394.202067
    6022.1770  24230.768000  27073.252032  2410.786953
    6023.3880  24265.842000  27193.133116  2434.897065
    6024.5220  24299.441000  27235.523874  2454.539448
    6025.7330  24309.566000  27203.423665  2459.708472
    6026.8690  24324.219000  27171.836679  2447.409261
    6028.1570  24377.396000  27200.757155  2426.635693
    6029.3690  24413.100000  27301.192252  2415.391470
    6030.5820  24449.330000  27519.135875  2419.678337
    6031.8720  24491.086000  27819.589049  2436.492279
    6033.1610  24515.367000  28117.550249  2453.837058
    6034.5280  24576.174000  28450.024935  2478.709438
    6035.8190  24596.508000  28701.009078  2502.109764
    6037.1870  24641.367000  28988.506273  2524.041574
    6038.5550  24667.752000  29241.510831  2536.500318
    6040.0000  24734.664000  29511.026129  2548.489831
    6041.3700  24777.102000  29694.053895  2557.007988
    6042.8160  24833.064000  29835.590442  2574.053750
    6044.2640  24870.553000  29897.638376  2588.629262
    6045.7120  24929.568000  29961.195734  2606.733927
    6047.2370  25000.109000  30045.265211  2623.368253
    6048.7630  25072.176000  30178.842681  2646.529358
    6050.2890  25114.768000  30311.932281  2676.220237
    6051.8160  25168.887000  30459.532180  2712.441058
    6053.4220  25247.531000  30608.644491  2763.191822
    6054.9510  25315.701000  30699.261414  2801.468086
    6056.5570  25371.398000  30758.395351  2835.277955
    6058.2410  25453.621000  30806.034985  2867.611955
    6059.8490  25520.369000  30846.186166  2889.478736
    6061.5350  25550.643000  30858.846960  2908.872307
    6063.2220  25591.443000  30897.019959  2917.793669
    6064.9100  25671.770000  31017.704197  2919.248279
    6066.6760  25756.621000  31122.898059  2907.230240
    6068.3650  25814.000000  31185.600954  2888.737283
    6070.1330  25874.904000  31253.814772  2854.776172
    6071.9020  26013.332000  31439.541239  2838.345681
    6073.7490  26113.289000  31639.775323  2835.442591
    6075.5210  26178.770000  31842.522336  2870.067581
    6077.3690  26269.777000  32099.778021  2923.221071
    6079.2200  26341.313000  32327.544677  2988.906625
    6081.1490  26421.371000  32579.820390  3057.119370
    6083.0020  26595.957000  32900.610432  3131.860421
    6084.9340  26651.068000  33082.906361  3191.132039
    6086.8660  26750.705000  33309.716064  3233.930040
    6088.8000  26843.867000  33521.035855  3244.259665
    6090.8130  26930.557000  33719.863661  3215.118096
    6092.8270  27060.771000  33986.201859  3171.503021
    6094.8430  27162.512000  34224.052535  3117.419846
    6096.8590  27289.779000  34501.414958  3076.865354
    6098.8780  27389.572000  34757.283842  3047.836995
    6100.9750  27495.891000  35039.663942  3042.339146
    6103.0750  27558.736000  35271.560283  3065.372151
    6105.1750  27653.105000  35529.961208  3131.929656
    6107.2770  27748.002000  35744.872690  3219.019589
    6109.4590  27879.426000  36006.295474  3319.638188
    6111.6430  28021.373000  36252.231587  3421.787038
    6113.8270  28138.848000  36487.670634  3501.461360
    6116.0130  28260.848000  36769.624528  3567.667725
    6118.2800  28367.375000  37072.094516  3610.399811
    6120.4700  28493.426000  37421.065481  3640.662949
    6122.7400  28636.004000  37820.553840  3670.455274
    6125.0110  28755.107000  38195.552657  3701.777413
    6127.3630  28907.738000  38601.055094  3749.627907
    6129.6390  29042.895000  38948.072130  3805.004885
    6131.9950  29197.576000  39295.601525  3865.915766
    6134.3520  29328.783000  39580.635209  3914.348830
    6136.7900  29472.518000  39877.188193  3959.316605
    6139.1510  29612.775000  40141.244869  3983.812821
    6141.5940  29737.561000  40393.812888  4003.834900
    6144.0380  29886.873000  40687.896051  4026.387830
    6146.4840  30050.711000  41015.482660  4049.468432
    6148.9320  30178.074000  41278.584658  4052.077993
    6151.4620  30333.963000  41564.194016  4057.220267
    6153.9940  30499.377000  41869.316568  4072.887703
    6156.5280  30669.318000  42201.950534  4102.085247
    6159.0640  30816.785000  42552.091556  4116.811719
    6161.6030  30971.777000  42909.741315  4113.066554
    6164.2220  31126.297000  43288.907510  4102.852340
    6166.8440  31287.342000  43662.578447  4114.167096
    6169.4700  31457.912000  44037.767827  4167.005305
    6172.0960  31607.010000  44411.454990  4249.377202
    6174.8060  31774.631000  44850.664485  4351.277169
    6177.5170  31935.781000  45286.380798  4457.710719
    6180.2310  32109.455000  45755.606701  4554.666606
    6182.9480  32269.654000  46188.339940  4641.155586
    6185.6670  32436.381000  46638.587817  4716.171102
    6188.4690  32572.633000  47064.342614  4776.713020
    6191.2730  32750.412000  47521.614144  4834.789746
    6194.0810  32898.715000  47943.392846  4892.390306
    6196.8910  33094.547000  48414.677680  4962.521734
    6199.7030  33270.902000  48841.477527  5024.188263
    6202.5990  33433.781000  49253.783945  5081.376533
    6205.4980  33611.191000  49681.606646  5140.096106
    6208.3990  33788.125000  50126.936054  5220.339872
    6211.3040  33971.582000  50615.778290  5306.117242
    6214.2100  34167.570000  51135.125502  5388.422382
    6217.2020  34347.082000  51634.986001  5456.259414
    6220.1960  34544.117000  52152.361369  5508.621777
    6223.1930  34728.680000  52640.240646  5538.517461
    6226.1930  34919.770000  53172.638199  5560.938809
    6229.1960  35097.387000  53677.541007  5584.889701
    6232.2840  35268.527000  54159.954031  5601.367587
    6235.3750  35365.195000  54495.876835  5597.376716
    6238.4690  35752.387000  55286.310942  5645.915346
    6241.5650  35022.105000  54372.256532  5531.981301
    6244.7480  35889.352000  55966.710008  5686.574523
    6247.8520  36159.121000  56632.675631  5770.698478
    6251.0410  36414.418000  57285.153855  5888.353960
    6254.2330  36579.242000  57784.138699  6020.536175
    6257.4290  36804.590000  58343.634766  6163.244021
    6260.7100  36980.465000  58841.647809  6289.489458
    6263.9130  37216.863000  59458.159590  6389.256226
    6267.2020  37392.789000  59979.190577  6463.556308
    6270.4940  37632.242000  60625.729547  6541.381508
    6273.7900  37828.219000  61175.779935  6614.739116
    6277.1720  38030.727000  61740.334580  6697.621332
    6280.4750  38244.754000  62320.405018  6781.036054
    6283.8650  38449.313000  62923.986123  6862.977795
    6287.2580  38633.391000  63509.077875  6930.450750
    6290.6550  38849.000000  64151.677249  7009.449985
    6294.0560  39090.133000  64819.791571  7098.979080
    6297.5440  39291.793000  65433.415448  7192.041501
    6300.9540  39437.980000  65957.547237  7287.629425
    6304.4500  39707.691000  66698.188717  7392.742656
    6307.9500  39880.930000  67289.342417  7477.390480
    6311.5380  40112.691000  67979.009115  7565.564527
    6315.0470  40326.980000  68611.181965  7639.273629
    6318.5600  40550.797000  69281.868566  7701.500924
    6322.1610  40753.137000  69946.063129  7761.265636
    6325.7660  40971.004000  70645.767334  7823.556112
    6329.3750  41191.398000  71338.984712  7896.376222
    6333.0730  41398.316000  72025.707484  7975.721411
    6336.6910  41638.762000  72746.945017  8062.598606
    6340.3970  41886.730000  73499.696012  8162.008434
    6344.1090  42073.230000  74170.950547  8265.940943
    6347.8260  42292.254000  74873.719070  8378.408238
    6351.5460  42538.801000  75688.998841  8507.403838
    6355.2710  42778.875000  76476.790755  8627.927331
    6359.0850  42949.477000  77165.083728  8747.973481
    6362.8190  43212.602000  77994.894208  8894.555657
    6366.6450  43437.254000  78756.220101  9028.662689
    6370.4730  43628.434000  79475.054596  9160.302423
    6374.3070  43903.137000  80330.387609  9290.468437
    6378.2300  44116.367000  81104.240527  9399.168683
    6382.0750  44326.121000  81870.607373  9499.394333
    6386.0090  44547.406000  82643.479275  9606.144305
    6389.9480  44740.211000  83372.862955  9712.423820
    6393.8930  45008.547000  84259.759734  9839.239338
    6397.8420  45252.406000  85080.157370  9962.577667
    6401.8820  45442.793000  85849.068605  10068.449656
    6405.8430  45690.703000  86710.496361  10181.852222
    6409.8940  45890.141000  87522.438542  10291.776733
    6413.9500  46139.105000  88398.884879  10425.235476
    6418.0130  46352.594000  89218.833565  10548.220323
    6422.0810  46609.609000  90115.305413  10692.729469
    6426.1530  46815.148000  90944.281317  10816.773442
    6430.3180  47054.219000  91841.763345  10938.351855
    6434.4020  47289.809000  92755.761461  11048.446366
    6438.5790  47476.930000  93568.277351  11154.080654
    6442.7610  47710.574000  94501.296169  11280.240316
    6446.9490  47936.746000  95447.823767  11428.928744
    6451.2300  48185.441000  96435.859744  11588.151127
    6455.4300  48390.664000  97319.414587  11746.889740
    6459.7230  48617.414000  98257.470107  11906.164361
    6463.9340  48833.688000  99186.042378  12064.971086
    6468.2390  49045.488000  100120.122892  12209.309005
    6472.5500  49272.816000  101050.715995  12352.167199
    6476.9550  49512.668000  102041.822731  12507.566185
    6481.2780  49702.047000  102940.434938  12659.482250
    6485.6070  49963.949000  103974.557040  12826.934596
    6490.0310  50174.379000  104915.190884  12980.903526
    6494.4610  50392.336000  105867.339909  13122.414519
    6498.8980  50609.820000  106878.986656  13265.454215
    6503.3410  50824.828000  107857.150963  13416.022148
    6507.7900  51044.359000  108867.825790  13578.104593
    6512.3350  51269.422000  109902.016757  13754.736150
    6516.7970  51434.008000  110813.708315  13915.891882
    6521.3550  51685.117000  111905.914341  14097.570361
    6525.9200  51905.754000  112934.629473  14270.780870
    6530.4920  52133.918000  114013.863906  14443.522645
    6535.0690  52347.609000  115059.600913  14613.785023
    6539.6550  52573.824000  116133.843971  14787.575771
    6544.2470  52678.566000  116954.603537  14923.898520
    6548.9360  52919.832000  118072.880438  15094.766052
    6553.5410  53067.625000  119017.655021  15244.150316
    6558.2440  53256.945000  120053.949224  15405.062954
    6562.9540  53495.789000  121203.741125  15583.504337
    6567.6710  53719.160000  122298.054492  15776.462828
    6572.3950  53970.059000  123476.879724  15966.965471
    6577.2180  54182.480000  124587.217020  16159.999287
    6581.9560  54322.430000  125501.049006  16329.546198
    6586.7920  54573.902000  126723.403120  16537.636496
    6591.5460  54795.906000  127869.266068  16733.260462
    6596.3970  54961.430000  128888.638810  16910.399141
    6601.2570  55164.484000  129991.522971  17106.067761
    6606.1250  55407.063000  131229.917022  17310.268435
    6611.0910  55590.168000  132308.822054  17490.008081
    6615.9730  55823.797000  133534.229805  17696.269382
    6620.9550  56057.953000  134785.177148  17902.049986
    6625.8530  56230.637000  135851.605055  18081.370439
    6630.8500  56400.844000  136970.547769  18282.218539
    6635.8550  56613.578000  138182.994030  18490.588084
    6640.8690  56816.836000  139357.962175  18704.495392
    6645.8910  56980.625000  140486.457717  18900.929444
    6650.9190  57155.934000  141600.444003  19109.896016
    6655.9570  57390.773000  142913.941481  19332.384465
    6661.0960  57550.137000  144018.953970  19543.405515
    6666.1500  57755.027000  145246.470105  19765.956580
    6671.3050  57878.441000  146279.498711  19960.037834
    6676.4690  58072.383000  147490.035154  20171.639146
    6681.6420  58238.848000  148614.086638  20374.781262
    6686.8220  58405.844000  149808.656029  20579.446877
    6692.0110  58430.363000  150614.722433  20739.644650
    6697.3030  58264.406000  150979.320208  20847.371542
    6702.5090  55710.977000  145036.393579  20058.614275
    6707.7240  60671.074000  158743.000287  22014.394704
    6713.0420  60231.699000  158388.103943  22014.721203
    6718.3690  60084.848000  158789.733562  22131.565588
    6723.7050  60159.523000  159801.872455  22329.925974
    6729.0490  60175.723000  160661.521105  22501.811083
    6734.4030  60124.449000  161323.677192  22655.253421
    6739.7660  60592.703000  163487.342802  23028.200493
    6745.1370  60627.480000  164382.520773  23213.689183
    6750.6140  59730.785000  162806.202076  23057.694906
    6756.0030  58895.617000  161300.433655  22908.240056
    6761.4980  60622.973000  166901.182153  23759.320929
    6766.9060  61535.855000  170277.253763  24304.900898
    6772.4200  60121.262000  167251.983096  23932.025858
    6777.9430  62003.195000  173387.316536  24881.708023
    6783.4760  62051.656000  174379.018845  25090.874128
    6789.0180  61995.641000  175156.362698  25278.622451
    6794.5690  61966.152000  175950.076840  25462.844228
    6800.2280  61600.191000  175864.352102  25514.628930
    6805.7990  59280.754000  170117.215128  24752.925900
    6811.4770  64331.844000  185541.532100  27066.769282
    6817.0670  63657.461000  184568.291256  26986.116696
    6822.7650  63548.602000  185198.643740  27160.018911
    6828.4730  63603.270000  186310.359781  27389.422100
    6834.1900  63678.461000  187505.724110  27630.365674
    6839.9180  63744.184000  188687.639824  27875.856298
    6845.6560  63896.426000  190100.034063  28148.876108
    6851.4050  64026.199000  191489.764665  28422.365674
    6857.1630  64114.496000  192732.166161  28684.459205
    6863.0310  64061.320000  193602.047294  28887.031277
    6868.8100  64192.668000  195037.529411  29180.159191
    6874.6980  64307.543000  196363.382263  29456.804435
    6880.4980  64442.941000  197763.959660  29738.996458
    6886.4070  64470.871000  198865.856481  29990.705272
    6892.3270  64532.320000  200107.192120  30254.931124
    6898.2580  64536.301000  201163.270965  30498.724763
    6904.2000  64672.809000  202731.785236  30805.025752
    6910.1520  64718.836000  203918.680102  31067.842699
    6916.1150  64828.391000  205316.078924  31367.164842
    6922.0890  64779.477000  206233.256277  31592.092130
    6928.1750  64868.082000  207542.616636  31895.460639
    6934.1710  64987.219000  208999.658876  32201.422217
    6940.2790  65087.875000  210382.284873  32500.883707
    6946.2960  65159.063000  211670.200136  32799.865135
    6952.4280  65239.777000  213070.769052  33114.404189
    6958.5690  65311.012000  214416.773153  33414.457283
    6964.6200  65405.777000  215807.452797  33722.038596
    6970.7850  65533.066000  217301.510767  34035.150870
    6976.9600  65597.883000  218636.038819  34340.809356
    6983.1470  65712.227000  220098.244301  34657.980330
    6989.3470  65798.094000  221487.880264  34974.697495
    6995.6610  65798.484000  222653.065196  35249.938993
    7001.8820  65887.406000  224054.497686  35563.659485
    7008.1160  65958.852000  225425.807849  35873.974670
    7014.4650  66057.820000  226917.478174  36200.771078
    7020.7220  66106.320000  228225.541018  36495.112773
    7027.0960  66121.344000  229445.286821  36792.006225
    7033.3760  66178.891000  230779.462112  37096.385724
    7039.7740  66332.969000  232446.256526  37464.358596
    7046.1830  66331.570000  233646.421360  37764.818918
    7052.6040  66400.695000  235052.177942  38081.801736
    7059.0390  66470.344000  236503.236613  38414.304118
    7065.4840  66445.523000  237575.961189  38687.339775
    7071.9420  66479.227000  238884.345059  38994.925525
    7078.4130  66556.461000  240344.094838  39336.058804
    7084.8960  66536.219000  241442.281858  39621.680111
    7091.3910  66568.500000  242748.151591  39937.849876
    7097.8990  66578.305000  243989.398048  40249.547990
    7104.5260  66608.641000  245312.108947  40573.750328
    7111.0590  66624.500000  246583.425840  40878.505122
