# XDI/1.0
# Column.1: energy eV
# Column.2: i0
# Column.3: itrans
# Column.4: irefer
# Beamline.name: SSRL 2-3
# Beamline.notes: vert slits = 0.6mm
# Detector.I0: N2 15cm
# Detector.I1: N2 30cm
# Detector.I2: N2 15cm
# Element.edge: K
# Element.symbol: Cr
# Mono.d_spacing: 3.13550
# Mono.name: Si(111)
# Mono.notes: unfocused, detuned 75%, clockwise at E=5990eV
# Sample.formula: CrO2
# Sample.name: CrO2
# Sample.prep: powder on tape (4 layers)
# Sample.reference: Cr foil
# Sample.temperature: room temp
# Scan.start_time: 1997-04-17 19:39:50
# ///
#    Note: mono d_spacing is nominal!
#     exafs to K16
#     396  E XMU XMUR I0
#-------------
#   energy   i0   itrans  irefer
    5759.9890  25429.900000  22252.499671  2825.700637
    5769.9800  25400.900000  22599.500550  2886.699496
    5780.0070  25379.900000  22963.500535  2951.699252
    5790.0030  25315.900000  23293.499887  3014.700073
    5799.9650  25288.900000  23664.499986  3081.698895
    5810.0340  25235.900000  24014.499984  3148.700456
    5820.0000  25171.900000  24352.499984  3213.698688
    5830.0020  25142.900000  24718.499985  3279.699986
    5839.9710  25098.900000  25075.500001  3348.700211
    5849.9750  25050.900000  25438.500014  3418.701413
    5860.0160  25012.900000  25815.499872  3488.699678
    5870.0220  24977.900000  26188.500021  3562.698930
    5879.9930  24928.900000  26562.499903  3635.699194
    5890.0000  24884.900000  26943.500079  3708.698787
    5899.9710  24816.900000  27285.499922  3780.700926
    5909.9780  24776.900000  27670.500103  3853.700546
    5920.0210  24701.900000  28013.500754  3922.701457
    5930.0260  24641.900000  28376.500234  3997.700601
    5939.9950  24588.900000  28741.498570  4070.700190
    5949.9990  24538.900000  29113.500855  4147.700206
    5959.9650  24488.900000  29485.501079  4222.699661
    5969.9670  24416.900000  29822.499204  4291.700818
    5970.4870  24413.900000  29839.500688  4294.701451
    5971.0060  24355.900000  29785.500657  4287.701121
    5971.5260  24265.900000  29703.499663  4276.700806
    5971.9720  24164.900000  29592.500480  4259.700987
    5972.4920  24047.900000  29476.501148  4244.700971
    5973.0120  24064.900000  29514.499390  4252.698180
    5973.5320  24222.900000  29726.498895  4283.698906
    5973.9780  24353.900000  29911.499376  4311.698892
    5974.4980  24433.900000  30034.499742  4328.701932
    5975.0190  24421.900000  30041.500350  4330.698177
    5975.4640  24415.900000  30055.499606  4334.701109
    5975.9850  24439.900000  30106.501426  4343.698363
    5976.5060  24437.900000  30121.500103  4346.701171
    5977.0260  24425.900000  30126.498844  4348.700847
    5977.4730  24416.900000  30138.499737  4348.702025
    5977.9940  24436.900000  30176.500279  4356.698235
    5978.5150  24435.900000  30191.501046  4359.700936
    5979.0370  24423.900000  30213.500505  4360.701161
    5979.4830  24412.900000  30208.501190  4358.702325
    5980.0050  24432.900000  30262.498864  4368.699138
    5980.5260  24422.900000  30273.499224  4371.698983
    5980.9730  24426.900000  30284.498594  4375.697712
    5981.4950  24412.900000  30290.501488  4376.700724
    5982.0160  24433.900000  30346.500689  4384.700017
    5982.4630  24440.900000  30364.499867  4389.701189
    5982.9860  24422.900000  30363.499623  4383.700439
    5983.5070  24444.900000  30414.501120  4394.701036
    5984.0300  24470.900000  30467.500451  4401.698796
    5984.4770  24461.900000  30484.501444  4402.701831
    5984.9990  24430.900000  30458.500707  4397.701968
    5985.5210  24358.900000  30393.500488  4388.698816
    5985.9700  24171.900000  30178.498526  4355.701609
    5986.4920  23673.900000  29576.501431  4267.700576
    5987.0150  22490.900000  28117.500693  4052.699422
    5987.4630  21286.900000  26624.500413  3833.701785
    5987.9860  21606.900000  27036.500086  3888.699598
    5988.5090  22744.900000  28484.498996  4087.698282
    5989.0320  23346.900000  29249.500979  4182.698084
    5989.4800  23645.900000  29648.500132  4218.697953
    5990.0030  23904.900000  29986.499354  4214.699344
    5990.5260  23996.900000  30099.499850  4128.699867
    5990.9750  24051.900000  30173.501201  4027.698397
    5991.4990  24102.900000  30211.500562  3926.701126
    5992.0210  24126.900000  30209.498675  3844.699324
    5992.4710  24126.900000  30186.499880  3784.700670
    5992.9950  24127.900000  30191.500587  3723.698695
    5993.5180  24158.900000  30233.498824  3676.699748
    5993.9670  24180.900000  30242.501376  3638.699237
    5994.4920  24164.900000  30215.500886  3593.699118
    5995.0160  24161.900000  30198.498734  3556.700227
    5995.4650  24172.900000  30225.500967  3540.701853
    5995.9890  24187.900000  30268.501221  3533.700450
    5996.5140  24161.900000  30272.500082  3531.701310
    5996.9630  24147.900000  30278.500911  3530.699182
    5997.4880  24168.900000  30337.500354  3536.701746
    5998.0120  24155.900000  30342.499596  3526.699179
    5998.5380  24149.900000  30336.500950  3496.699905
    5998.9870  24130.900000  30308.499263  3450.700234
    5999.5130  24164.900000  30313.500280  3387.699804
    6000.0370  24127.900000  30201.498648  3303.698331
    6000.4870  24095.900000  30086.501064  3232.699677
    6001.0130  24003.900000  29811.499763  3137.700532
    6001.4620  23924.900000  29560.501387  3058.700210
    6001.9880  23782.900000  29189.499401  2964.700558
    6002.5130  23790.900000  28983.498611  2898.700852
    6002.9640  23922.900000  28959.498755  2862.700068
    6003.4900  24073.900000  28923.498629  2823.700803
    6004.0160  24142.900000  28794.501277  2775.701314
    6004.4660  24104.900000  28576.501074  2730.699325
    6004.9930  24128.900000  28429.498685  2688.698620
    6005.5180  24136.900000  28262.498651  2645.700289
    6005.9700  24118.900000  28103.501174  2611.699517
    6006.4960  24105.900000  27886.500643  2569.698878
    6007.0220  24123.900000  27668.499124  2525.700753
    6007.4730  24113.900000  27435.501165  2483.701127
    6008.0000  24111.900000  27158.500589  2432.700834
    6008.5260  24091.900000  26821.499456  2378.699202
    6008.9780  24122.900000  26576.500004  2338.700345
    6009.5040  24114.900000  26220.499978  2287.699086
    6010.0320  24099.900000  25900.499937  2234.700626
    6010.9360  24084.664000  25551.255883  2174.464591
    6011.8390  24090.951000  25433.521113  2166.757982
    6012.8180  24090.768000  25415.296993  2206.580951
    6013.7980  24094.107000  25518.583917  2276.932102
    6014.7780  24096.975000  25690.381058  2341.811193
    6015.7580  24121.367000  25944.687946  2395.221917
    6016.8150  24138.285000  26189.506080  2424.159337
    6017.7960  24131.730000  26331.833910  2422.627323
    6018.9290  24131.701000  26449.673927  2403.624557
    6019.9860  24164.197000  26652.021060  2394.146943
    6021.1200  24183.219000  26876.880682  2397.202573
    6022.1770  24217.768000  27064.252973  2414.786262
    6023.3880  24210.842000  27134.132829  2433.896447
    6024.5220  24253.441000  27187.524343  2455.538792
    6025.7330  24280.566000  27173.425099  2462.707802
    6026.8690  24298.219000  27144.836808  2447.408857
    6028.1570  24322.396000  27150.758191  2425.634093
    6029.3690  24356.100000  27253.191445  2414.392328
    6030.5820  24396.330000  27481.136151  2420.678351
    6031.8720  24434.086000  27774.588631  2433.492637
    6033.1610  24457.367000  28060.550112  2451.837343
    6034.5280  24500.174000  28368.024687  2477.709686
    6035.8190  24564.508000  28670.010236  2503.111698
    6037.1870  24591.367000  28935.506696  2525.041369
    6038.5550  24633.752000  29202.512062  2539.501330
    6040.0000  24671.664000  29449.027239  2547.490810
    6041.3700  24702.102000  29617.053916  2554.009153
    6042.8160  24781.064000  29779.588618  2572.055059
    6044.2640  24835.553000  29860.639702  2590.630326
    6045.7120  24880.568000  29900.194853  2606.733740
    6047.2370  24915.109000  29953.264190  2621.367968
    6048.7630  24987.176000  30090.843814  2644.528883
    6050.2890  25048.768000  30234.932000  2678.221473
    6051.8160  25120.887000  30413.532320  2717.441062
    6053.4220  25173.531000  30527.642522  2760.190186
    6054.9510  25214.701000  30600.262809  2797.470448
    6056.5570  25312.398000  30691.394788  2838.277390
    6058.2410  25370.621000  30731.034847  2865.612318
    6059.8490  25441.369000  30762.187276  2887.477403
    6061.5350  25447.643000  30745.846924  2900.870678
    6063.2220  25474.443000  30771.022349  2908.796478
    6064.9100  25583.770000  30913.703546  2913.247872
    6066.6760  25653.621000  31004.899217  2900.230542
    6068.3650  25741.000000  31102.601072  2881.737617
    6070.1330  25804.904000  31156.816557  2850.778319
    6071.9020  25891.332000  31296.539767  2828.344451
    6073.7490  26005.289000  31516.774894  2829.443192
    6075.5210  26097.770000  31754.519767  2867.068474
    6077.3690  26195.777000  32006.775494  2920.221923
    6079.2200  26274.313000  32226.544293  2983.906864
    6081.1490  26354.371000  32474.820772  3053.120076
    6083.0020  26448.957000  32713.607559  3119.859986
    6084.9340  26541.068000  32941.905453  3184.131506
    6086.8660  26647.705000  33174.716367  3223.929737
    6088.8000  26770.867000  33428.035830  3236.258712
    6090.8130  26863.557000  33636.864045  3208.118441
    6092.8270  26964.771000  33861.204068  3161.504229
    6094.8430  27056.512000  34088.051115  3107.420360
    6096.8590  27175.779000  34360.412375  3066.862643
    6098.8780  27273.572000  34604.283491  3038.835779
    6100.9750  27418.891000  34933.663286  3037.339380
    6103.0750  27530.736000  35228.557746  3069.372224
    6105.1750  27651.105000  35518.961868  3137.931080
    6107.2770  27752.002000  35747.869814  3224.018883
    6109.4590  27867.426000  35976.296098  3323.639043
    6111.6430  27976.373000  36173.229639  3417.787229
    6113.8270  28100.848000  36417.672091  3502.462014
    6116.0130  28236.848000  36725.623214  3570.667995
    6118.2800  28381.375000  37085.094381  3617.402114
    6120.4700  28527.426000  37463.065976  3650.665721
    6122.7400  28639.004000  37823.555312  3676.455339
    6125.0110  28772.107000  38218.550422  3706.777908
    6127.3630  28891.738000  38568.056108  3751.626097
    6129.6390  29013.895000  38904.073142  3803.006557
    6131.9950  29162.576000  39246.601066  3866.914273
    6134.3520  29282.783000  39525.638306  3916.351703
    6136.7900  29437.518000  39825.188271  3956.317163
    6139.1510  29585.775000  40096.244297  3984.810156
    6141.5940  29729.561000  40382.812879  4008.833377
    6144.0380  29884.873000  40691.895003  4030.389142
    6146.4840  30006.711000  40949.485931  4046.471459
    6148.9320  30169.074000  41266.587780  4051.078573
    6151.4620  30303.963000  41524.196106  4056.219151
    6153.9940  30476.377000  41832.316336  4074.887581
    6156.5280  30606.318000  42105.949889  4096.086715
    6159.0640  30782.785000  42486.089019  4113.810406
    6161.6030  30938.777000  42852.741254  4116.065026
    6164.2220  31098.297000  43227.905997  4103.852878
    6166.8440  31249.342000  43604.576915  4117.166236
    6169.4700  31408.912000  43984.767214  4170.005582
    6172.0960  31581.010000  44386.456565  4253.377574
    6174.8060  31741.631000  44801.664827  4356.279207
    6177.5170  31923.781000  45292.380522  4467.709307
    6180.2310  32085.455000  45728.604091  4562.665591
    6182.9480  32260.654000  46191.340492  4654.154890
    6185.6670  32435.381000  46649.585091  4728.169044
    6188.4690  32585.633000  47084.345841  4792.717535
    6191.2730  32778.410000  47582.615168  4852.788397
    6194.0810  32939.715000  48003.391882  4914.390180
    6196.8910  33120.547000  48459.681604  4975.526256
    6199.7030  33292.902000  48894.475817  5042.184502
    6202.5990  33456.781000  49314.782625  5098.375127
    6205.4980  33659.191000  49760.607353  5162.095770
    6208.3990  33834.125000  50209.934652  5236.340668
    6211.3040  34019.582000  50697.778851  5319.121191
    6214.2100  34218.570000  51191.125102  5405.425542
    6217.2020  34383.082000  51682.986240  5471.258380
    6220.1960  34579.117000  52205.358608  5522.624195
    6223.1930  34747.680000  52674.243988  5548.516569
    6226.1930  34941.770000  53201.636742  5575.935811
    6229.1960  35152.387000  53744.537015  5601.889911
    6232.2840  35344.527000  54266.953861  5620.369770
    6235.3750  35409.195000  54565.877446  5613.378308
    6238.4690  35782.387000  55336.309761  5659.911687
    6241.5650  35012.105000  54343.252609  5534.977266
    6244.7480  35933.352000  56005.712210  5697.575248
    6247.8520  36181.121000  56646.673382  5782.697466
    6251.0410  36453.418000  57330.153612  5903.354368
    6254.2330  36639.242000  57850.138735  6036.533068
    6257.4290  36867.590000  58430.636233  6187.247663
    6260.7100  37068.465000  58977.647026  6310.484826
    6263.9130  37289.863000  59551.162694  6410.253516
    6267.2020  37472.789000  60081.185718  6482.555131
    6270.4940  37682.242000  60691.724176  6555.381720
    6273.7900  37861.219000  61221.775976  6626.739761
    6277.1720  38064.727000  61791.335526  6709.625605
    6280.4750  38298.754000  62393.403898  6797.035512
    6283.8650  38484.313000  62969.986223  6874.983226
    6287.2580  38684.391000  63588.077071  6951.454966
    6290.6550  38948.000000  64318.681341  7039.450570
    6294.0560  39136.133000  64915.794311  7119.980295
    6297.5440  39354.793000  65549.414088  7216.039609
    6300.9540  39535.980000  66124.547257  7316.631492
    6304.4500  39762.691000  66789.191301  7415.743651
    6307.9500  39929.930000  67368.346291  7496.395223
    6311.5380  40234.691000  68177.008121  7599.567849
    6315.0470  40445.980000  68827.182171  7676.270035
    6318.5600  40653.797000  69476.866342  7734.499985
    6322.1610  40869.137000  70166.064440  7790.264255
    6325.7660  41098.004000  70873.766346  7851.553072
    6329.3750  41290.398000  71526.984135  7922.372975
    6333.0730  41523.316000  72261.710781  8007.722598
    6336.6910  41741.762000  72970.942537  8090.603402
    6340.3970  41968.730000  73679.692404  8189.003496
    6344.1090  42191.230000  74400.955131  8296.940062
    6347.8260  42393.254000  75096.717228  8415.404083
    6351.5460  42643.801000  75899.000641  8540.397202
    6355.2710  42866.875000  76657.786337  8659.926049
    6359.0850  43079.477000  77421.089064  8784.977953
    6362.8190  43290.602000  78154.900995  8921.550618
    6366.6450  43529.254000  78934.217665  9065.661530
    6370.4730  43738.434000  79697.053254  9197.305973
    6374.3070  43980.137000  80481.391819  9318.465788
    6378.2300  44195.367000  81258.242692  9427.163580
    6382.0750  44440.121000  82079.606519  9534.393102
    6386.0090  44647.406000  82842.474700  9644.144169
    6389.9480  44855.211000  83607.862862  9755.425278
    6393.8930  45109.547000  84453.755237  9879.235293
    6397.8420  45359.406000  85309.154000  10001.576835
    6401.8820  45563.793000  86109.073398  10114.446900
    6405.8430  45814.703000  86985.502410  10224.844212
    6409.8940  46050.141000  87819.434393  10348.771578
    6413.9500  46269.105000  88643.885774  10467.236650
    6418.0130  46454.594000  89432.831940  10590.219245
    6422.0810  46709.609000  90328.308362  10728.737658
    6426.1530  46911.148000  91142.283869  10846.775474
    6430.3180  47170.219000  92089.767964  10977.347596
    6434.4020  47367.809000  92925.766335  11080.446330
    6438.5790  47599.930000  93847.271596  11196.079705
    6442.7610  47796.574000  94701.293904  11310.241733
    6446.9490  48054.746000  95691.818401  11456.930178
    6451.2300  48276.441000  96617.856853  11613.144204
    6455.4300  48486.664000  97529.411708  11773.897337
    6459.7230  48753.414000  98568.469228  11943.168315
    6463.9340  48958.688000  99433.048716  12092.973004
    6468.2390  49172.488000  100337.126409  12237.313652
    6472.5500  49387.816000  101271.715200  12385.174520
    6476.9550  49634.668000  102299.822840  12537.560028
    6481.2780  49820.047000  103151.424894  12682.474163
    6485.6070  50066.949000  104160.553230  12850.933952
    6490.0310  50298.379000  105162.192618  13002.905727
    6494.4610  50505.336000  106123.339097  13153.409388
    6498.8980  50760.820000  107192.983832  13304.453079
    6503.3410  50939.828000  108106.147647  13441.011505
    6507.7900  51179.359000  109171.823802  13610.111460
    6512.3350  51444.422000  110289.016234  13797.733513
    6516.7970  51636.008000  111236.710594  13962.881100
    6521.3550  51881.117000  112312.918379  14148.560531
    6525.9200  52064.754000  113296.628817  14323.770259
    6530.4920  52308.918000  114402.859331  14499.513147
    6535.0690  52525.609000  115448.603680  14668.780225
    6539.6550  52706.824000  116381.842962  14824.578827
    6544.2470  52922.566000  117470.604328  14988.902986
    6548.9360  53116.832000  118539.870611  15150.754987
    6553.5410  53252.625000  119431.656920  15295.142574
    6558.2440  53469.945000  120534.946140  15468.051765
    6562.9540  53712.789000  121687.736859  15656.500992
    6567.6710  53905.160000  122712.056414  15831.468020
    6572.3950  54171.059000  123933.880181  16035.967996
    6577.2180  54409.480000  125087.213671  16220.991960
    6581.9560  54590.430000  126133.048796  16406.560620
    6586.7920  54813.902000  127258.410546  16608.635117
    6591.5460  54983.906000  128273.271814  16787.254273
    6596.3970  55184.430000  129389.644042  16980.393387
    6601.2570  55405.484000  130530.521158  17175.072821
    6606.1250  55648.063000  131777.918525  17383.266886
    6611.0910  55843.168000  132926.825203  17577.009863
    6615.9730  56057.797000  134118.233140  17778.266849
    6620.9550  56267.953000  135289.165533  17981.050522
    6625.8530  56439.637000  136389.613528  18165.380192
    6630.8500  56657.844000  137595.544122  18374.219025
    6635.8550  56876.578000  138819.998894  18585.600643
    6640.8690  57084.836000  140017.975699  18799.510123
    6645.8910  57299.625000  141266.457879  19019.939556
    6650.9190  57477.934000  142434.439140  19232.908912
    6655.9570  57669.773000  143611.935784  19440.388267
    6661.0960  57839.137000  144772.950602  19662.409334
    6666.1500  58036.027000  145972.474466  19870.954107
    6671.3050  58222.441000  147181.506706  20085.046131
    6676.4690  58437.383000  148446.036987  20303.646590
    6681.6420  58540.848000  149428.088986  20489.780855
    6686.8220  58722.844000  150663.657162  20710.460616
    6692.0110  58743.363000  151461.713438  20872.653901
    6697.3030  58571.406000  151803.318432  20967.376405
    6702.5090  55961.977000  145706.391238  20174.624019
    6707.7240  61028.074000  159715.001739  22164.413070
    6713.0420  60523.699000  159184.102116  22140.719120
    6718.3690  60491.848000  159896.736845  22295.552345
    6723.7050  60544.523000  160828.875035  22481.930816
    6729.0490  60495.723000  161563.518432  22641.813876
    6734.4030  60472.449000  162344.670841  22812.250012
    6739.7660  60990.703000  164583.335831  23191.203394
    6745.1370  61022.480000  165486.516612  23378.685259
    6750.6140  60130.785000  163949.251852  23223.714655
    6756.0030  59497.617000  163023.483557  23161.241609
    6761.4980  60925.973000  167775.129823  23893.311587
    6766.9060  61947.855000  171484.345538  24490.908885
    6772.4200  60511.262000  168370.093917  24114.046101
    6777.9430  62389.195000  174498.318123  25060.705546
    6783.4760  62395.656000  175439.044461  25255.896610
    6789.0180  62419.641000  176386.213448  25468.591458
    6794.5690  62378.152000  177151.107997  25655.862060
    6800.2280  62028.191000  177067.315751  25710.615864
    6805.7990  59726.754000  171391.096782  24954.921586
    6811.4770  64749.844000  186824.428595  27259.750982
    6817.0670  64154.461000  186031.242267  27214.111088
    6822.7650  64042.602000  186630.647787  27383.003704
    6828.4730  64046.270000  187630.347565  27595.419282
    6834.1900  64189.461000  189068.812924  27885.393976
    6839.9180  64275.184000  190276.564389  28142.830018
    6845.6560  64376.426000  191538.055132  28403.873031
    6851.4050  64495.199000  192863.905424  28665.399036
    6857.1630  64616.496000  194221.203597  28931.464336
    6863.0310  64704.320000  195507.153390  29208.038690
    6868.8100  64817.668000  196889.610820  29488.171609
    6874.6980  64922.543000  198256.354540  29761.806582
    6880.4980  65016.941000  199558.787420  30022.973343
    6886.4070  65141.871000  200977.813664  30334.707596
    6892.3270  65280.320000  202454.184710  30635.933353
    6898.2580  65338.301000  203678.221592  30911.720104
    6904.2000  65522.809000  205341.677462  31236.001100
    6910.1520  65574.836000  206525.734063  31508.836327
    6916.1150  65670.391000  207891.259929  31806.197292
    6922.0890  65649.477000  208888.085867  32046.040495
    6928.1750  65765.078000  210362.654600  32362.487796
    6934.1710  65885.219000  211842.721996  32683.426742
    6940.2790  65980.875000  213287.266760  32992.884840
    6946.2960  66097.063000  214718.166172  33317.884110
    6952.4280  66225.773000  216262.880581  33655.440007
    6958.5690  66316.016000  217674.850225  33955.452218
    6964.6200  66325.773000  218804.481975  34228.052442
    6970.7850  66458.070000  220343.616816  34547.190241
    6976.9600  66489.883000  221607.057159  34829.815972
    6983.1470  66676.227000  223375.334866  35199.978528
    6989.3470  66690.094000  224563.928509  35470.714989
    6995.6610  66778.484000  225957.952901  35788.905132
    7001.8820  66899.406000  227523.627052  36114.667623
    7008.1160  66882.852000  228602.711223  36374.959475
    7014.4650  67023.820000  230223.385435  36734.783247
    7020.7220  67093.320000  231610.593723  37041.114044
    7027.0960  67180.344000  233101.202496  37381.005637
    7033.3760  67208.891000  234343.396334  37682.377518
    7039.7740  67324.969000  235904.055588  38030.336807
    7046.1830  67332.570000  237124.441282  38316.824129
    7052.6040  67430.695000  238648.159115  38665.793863
    7059.0390  67461.344000  239915.253928  38976.299347
    7065.4840  67527.523000  241375.126039  39312.371388
    7071.9420  67585.227000  242797.174912  39645.895469
    7078.4130  67690.461000  244373.127659  40000.032594
    7084.8960  67634.219000  245384.422729  40268.682320
    7091.3910  67543.500000  246275.009116  40517.818275
    7097.8990  67607.305000  247701.412599  40854.543509
    7104.5260  67611.641000  248941.311617  41166.761555
    7111.0590  67722.500000  250617.399972  41552.491080
