# XDI/1.0
# Column.1: energy eV
# Column.2: i0
# Column.3: itrans
# Column.4: irefer
# Beamline.name: SSRL 2-3
# Beamline.notes: vert slits = 0.6mm
# Detector.I0: N2 15cm
# Detector.I1: N2 30cm
# Detector.I2: N2 15cm
# Element.edge: K
# Element.symbol: Cr
# Mono.d_spacing: 3.13550
# Mono.name: Si(111)
# Mono.notes: unfocused, detuned 75%, clockwise at E=5990eV
# Sample.formula: CrO2
# Sample.name: CrO2
# Sample.prep: powder on tape (4 layers)
# Sample.reference: Cr foil
# Sample.temperature: room temp
# Scan.start_time: 1997-04-17 19:39:50
# ///
#    Note: mono d_spacing is nominal!
#     exafs to K16
#     396  E XMU XMUR I0
#-------------
#   energy   i0   itrans  irefer
    5759.9890  25491.900000  22303.500844  2831.701180
    5769.9800  25425.900000  22617.499924  2889.700720
    5780.0070  25397.900000  22973.500360  2953.699326
    5790.0030  25347.900000  23318.499987  3017.700255
    5799.9650  25298.900000  23665.499885  3081.699673
    5810.0340  25253.900000  24027.500037  3147.699943
    5820.0000  25207.900000  24373.500023  3212.699269
    5830.0020  25160.900000  24726.499981  3280.699108
    5839.9710  25131.900000  25100.500007  3353.698499
    5849.9750  25092.900000  25473.500038  3421.700664
    5860.0160  25057.900000  25857.500073  3495.700193
    5870.0220  25010.900000  26232.499995  3565.698972
    5879.9930  24957.900000  26582.500021  3635.701602
    5890.0000  24910.900000  26951.500115  3707.700817
    5899.9710  24847.900000  27307.500060  3781.699047
    5909.9780  24788.900000  27668.499733  3849.701344
    5920.0210  24717.900000  28023.500943  3926.700389
    5930.0260  24669.900000  28396.499401  3997.698726
    5939.9950  24621.900000  28770.500983  4074.701901
    5949.9990  24567.900000  29127.499059  4147.698959
    5959.9650  24523.900000  29504.498766  4222.700078
    5969.9670  24457.900000  29862.498790  4295.699784
    5970.4870  24427.900000  29853.501069  4295.698279
    5971.0060  24385.900000  29828.499526  4293.701994
    5971.5260  24313.900000  29753.500926  4283.698634
    5971.9720  24203.900000  29635.500301  4265.698648
    5972.4920  24074.900000  29492.500302  4248.699788
    5973.0120  24101.900000  29552.500973  4256.700695
    5973.5320  24279.900000  29786.499310  4291.701385
    5973.9780  24408.900000  29965.500000  4319.698983
    5974.4980  24455.900000  30036.499604  4328.700128
    5975.0190  24468.900000  30076.499624  4338.701559
    5975.4640  24465.900000  30099.498525  4340.699505
    5975.9850  24481.900000  30140.499599  4347.699128
    5976.5060  24451.900000  30126.501187  4345.701617
    5977.0260  24462.900000  30165.499906  4351.701352
    5977.4730  24464.900000  30173.499443  4354.701375
    5977.9940  24463.900000  30205.501043  4357.698546
    5978.5150  24449.900000  30204.500182  4360.701443
    5979.0370  24460.900000  30246.501483  4367.699867
    5979.4830  24470.900000  30269.498535  4368.700325
    5980.0050  24466.900000  30287.499926  4371.700587
    5980.5260  24448.900000  30277.498871  4372.700690
    5980.9730  24482.900000  30343.499640  4378.701918
    5981.4950  24481.900000  30366.501272  4384.699389
    5982.0160  24474.900000  30384.499776  4384.701728
    5982.4630  24456.900000  30382.499998  4385.697967
    5982.9860  24484.900000  30434.499016  4391.701779
    5983.5070  24482.900000  30453.499531  4394.698441
    5984.0300  24482.900000  30482.498971  4398.698557
    5984.4770  24479.900000  30494.501012  4402.701689
    5984.9990  24483.900000  30511.499907  4404.697824
    5985.5210  24395.900000  30425.500389  4392.700058
    5985.9700  24149.900000  30136.499325  4348.700389
    5986.4920  23612.900000  29485.498696  4252.697863
    5987.0150  22330.900000  27897.499735  4019.699182
    5987.4630  21242.900000  26549.500180  3821.698365
    5987.9860  21771.900000  27235.499404  3914.698236
    5988.5090  22876.900000  28637.500574  4106.701156
    5989.0320  23443.900000  29361.501197  4191.699805
    5989.4800  23720.900000  29726.500363  4218.699546
    5990.0030  23929.900000  29992.499180  4199.700961
    5990.5260  24049.900000  30162.500229  4119.700385
    5990.9750  24104.900000  30223.499149  4019.701875
    5991.4990  24131.900000  30229.501448  3917.698315
    5992.0210  24144.900000  30211.500939  3833.701086
    5992.4710  24168.900000  30229.500421  3777.699712
    5992.9950  24192.900000  30260.499092  3723.701505
    5993.5180  24174.900000  30233.500717  3665.701070
    5993.9670  24187.900000  30227.500062  3628.698733
    5994.4920  24201.900000  30244.499780  3589.698955
    5995.0160  24200.900000  30240.501119  3558.699334
    5995.4650  24172.900000  30212.500753  3536.698875
    5995.9890  24194.900000  30259.499467  3529.701008
    5996.5140  24213.900000  30313.499715  3531.699318
    5996.9630  24195.900000  30323.500238  3530.699455
    5997.4880  24193.900000  30350.501318  3535.699066
    5998.0120  24186.900000  30359.499421  3522.699025
    5998.5380  24193.900000  30371.498985  3491.699691
    5998.9870  24175.900000  30342.499975  3443.699636
    5999.5130  24159.900000  30287.501449  3371.700222
    6000.0370  24148.900000  30197.499725  3291.699940
    6000.4870  24155.900000  30119.498619  3222.700771
    6001.0130  24030.900000  29796.498966  3120.698647
    6001.4620  23891.900000  29474.500195  3036.700273
    6001.9880  23810.900000  29175.501256  2951.700246
    6002.5130  23851.900000  29021.501280  2891.701198
    6002.9640  23964.900000  28965.499804  2852.698704
    6003.4900  24104.900000  28907.498911  2813.699145
    6004.0160  24171.900000  28777.499127  2768.699738
    6004.4660  24178.900000  28612.499048  2726.698814
    6004.9930  24152.900000  28415.499567  2680.699467
    6005.5180  24146.900000  28241.499438  2638.700358
    6005.9700  24168.900000  28116.499721  2605.700598
    6006.4960  24157.900000  27897.499154  2561.699867
    6007.0220  24143.900000  27638.500883  2514.700624
    6007.4730  24133.900000  27412.499380  2471.699798
    6008.0000  24161.900000  27155.500223  2422.699980
    6008.5260  24139.900000  26808.499243  2369.699072
    6008.9780  24124.900000  26514.499973  2328.699022
    6009.5040  24137.900000  26196.499876  2276.699507
    6010.0320  24138.900000  25892.499887  2227.699296
    6010.9360  24119.664000  25566.256113  2169.464497
    6011.8390  24098.951000  25425.520980  2163.757800
    6012.8180  24097.768000  25421.297123  2208.581142
    6013.7980  24124.107000  25556.583917  2280.931634
    6014.7780  24119.975000  25713.380936  2343.811652
    6015.7580  24120.367000  25946.687894  2394.221121
    6016.8150  24147.285000  26196.505956  2419.159199
    6017.7960  24153.730000  26345.833987  2419.626428
    6018.9290  24158.701000  26474.673925  2399.622840
    6019.9860  24161.197000  26642.021010  2389.147736
    6021.1200  24198.219000  26896.881094  2394.202848
    6022.1770  24211.768000  27056.251725  2407.787066
    6023.3880  24248.842000  27167.132092  2433.897456
    6024.5220  24246.441000  27160.522592  2450.537881
    6025.7330  24279.566000  27159.423903  2458.708203
    6026.8690  24332.219000  27167.835547  2445.407454
    6028.1570  24351.396000  27163.758547  2421.634386
    6029.3690  24379.100000  27267.191635  2409.391456
    6030.5820  24411.330000  27489.135910  2414.677816
    6031.8720  24457.086000  27802.587444  2429.491776
    6033.1610  24503.367000  28119.552045  2450.835867
    6034.5280  24528.174000  28400.024733  2475.709486
    6035.8190  24572.508000  28683.009874  2497.112232
    6037.1870  24610.367000  28954.507082  2519.042520
    6038.5550  24664.752000  29236.513192  2534.500002
    6040.0000  24703.664000  29468.027815  2541.490888
    6041.3700  24742.102000  29649.054226  2552.007303
    6042.8160  24787.064000  29771.590628  2566.054754
    6044.2640  24857.553000  29870.639756  2587.629097
    6045.7120  24911.568000  29926.194703  2603.732972
    6047.2370  24958.109000  29979.265101  2618.367362
    6048.7630  25002.176000  30088.843677  2638.528726
    6050.2890  25084.768000  30259.933458  2671.220567
    6051.8160  25134.887000  30410.532171  2710.442759
    6053.4220  25195.531000  30537.643555  2756.192332
    6054.9510  25261.701000  30634.261955  2793.468614
    6056.5570  25336.398000  30699.394092  2832.276819
    6058.2410  25406.621000  30743.036378  2860.611775
    6059.8490  25473.369000  30783.186667  2883.479295
    6061.5350  25501.643000  30781.848488  2899.870792
    6063.2220  25520.443000  30808.022205  2906.795051
    6064.9100  25590.770000  30897.705936  2907.248030
    6066.6760  25677.621000  31017.899291  2894.228074
    6068.3650  25786.000000  31131.600887  2878.739167
    6070.1330  25846.904000  31196.815612  2848.777702
    6071.9020  25920.332000  31309.541146  2823.343667
    6073.7490  26012.289000  31512.773772  2824.442444
    6075.5210  26121.770000  31778.522429  2861.067098
    6077.3690  26202.777000  32010.776045  2919.223329
    6079.2200  26303.313000  32277.545439  2985.904753
    6081.1490  26383.371000  32513.819857  3053.117578
    6083.0020  26491.957000  32763.607681  3122.860402
    6084.9340  26579.068000  32971.906764  3183.129679
    6086.8660  26669.705000  33186.716055  3224.931395
    6088.8000  26802.867000  33457.034366  3236.259085
    6090.8130  26893.557000  33661.863214  3209.116101
    6092.8270  27008.771000  33902.201901  3160.502282
    6094.8430  27103.512000  34130.049511  3111.420000
    6096.8590  27188.779000  34360.414188  3065.863170
    6098.8780  27335.572000  34675.284041  3043.837813
    6100.9750  27441.891000  34959.663116  3037.339338
    6103.0750  27562.736000  35247.560300  3069.369959
    6105.1750  27670.105000  35530.962111  3135.932219
    6107.2770  27780.002000  35779.872310  3226.021065
    6109.4590  27903.426000  36014.296225  3324.638602
    6111.6430  28033.373000  36240.228752  3421.786535
    6113.8270  28147.848000  36466.670413  3504.460915
    6116.0130  28262.848000  36750.625674  3567.668320
    6118.2800  28400.375000  37108.095350  3615.402349
    6120.4700  28533.426000  37472.065753  3647.663195
    6122.7400  28659.004000  37838.555499  3674.457745
    6125.0110  28787.107000  38215.550476  3705.775369
    6127.3630  28913.738000  38592.055742  3751.626373
    6129.6390  29052.895000  38952.074602  3808.007301
    6131.9950  29188.576000  39270.602063  3867.913444
    6134.3520  29322.783000  39563.635094  3919.348303
    6136.7900  29465.518000  39843.189941  3958.315272
    6139.1510  29633.775000  40152.245160  3987.810599
    6141.5940  29760.561000  40422.811253  4002.832600
    6144.0380  29901.873000  40689.896589  4026.388501
    6146.4840  30037.711000  40979.482950  4044.470039
    6148.9320  30209.074000  41303.586766  4055.079703
    6151.4620  30338.963000  41568.193439  4055.217380
    6153.9940  30490.377000  41845.314263  4071.888210
    6156.5280  30673.318000  42187.950883  4100.084799
    6159.0640  30833.785000  42547.091780  4113.813694
    6161.6030  30969.777000  42897.742126  4113.067882
    6164.2220  31157.297000  43321.903925  4110.852268
    6166.8440  31290.342000  43661.577748  4119.165061
    6169.4700  31446.912000  44028.765899  4172.006899
    6172.0960  31622.010000  44440.459172  4256.381121
    6174.8060  31789.631000  44873.663670  4359.280703
    6177.5170  31951.781000  45325.379190  4465.709582
    6180.2310  32088.455000  45720.606672  4555.667709
    6182.9480  32288.654000  46215.340996  4650.156148
    6185.6670  32443.381000  46636.586308  4721.168568
    6188.4690  32643.633000  47154.343657  4790.717201
    6191.2730  32802.410000  47588.611971  4850.789564
    6194.0810  32940.715000  47995.393169  4903.391118
    6196.8910  33119.547000  48451.681901  4969.523955
    6199.7030  33330.902000  48926.474689  5040.184329
    6202.5990  33499.781000  49341.785666  5097.372962
    6205.4980  33666.191000  49761.604832  5157.096356
    6208.3990  33862.125000  50232.932281  5232.341237
    6211.3040  34025.582000  50686.776268  5315.117153
    6214.2100  34220.570000  51188.122630  5401.423475
    6217.2020  34445.082000  51756.986592  5474.256293
    6220.1960  34637.117000  52269.360220  5523.625028
    6223.1930  34821.680000  52765.242149  5555.518074
    6226.1930  35003.770000  53260.638569  5579.937469
    6229.1960  35205.387000  53808.541078  5601.890952
    6232.2840  35383.527000  54297.955422  5617.369944
    6235.3750  35448.195000  54595.875243  5610.373725
    6238.4690  35860.387000  55433.309084  5664.913698
    6241.5650  35113.105000  54478.254531  5543.979824
    6244.7480  36024.352000  56144.709405  5705.573215
    6247.8520  36261.121000  56773.673324  5790.697325
    6251.0410  36513.418000  57429.149732  5910.355663
    6254.2330  36676.242000  57896.138425  6035.536137
    6257.4290  36902.590000  58476.638832  6187.247619
    6260.7100  37078.465000  58969.646349  6310.486938
    6263.9130  37316.863000  59572.157903  6411.256770
    6267.2020  37537.789000  60174.190566  6488.552901
    6270.4940  37724.242000  60737.725455  6559.379511
    6273.7900  37946.219000  61338.779904  6639.736426
    6277.1720  38149.727000  61902.335039  6722.619612
    6280.4750  38373.754000  62507.405413  6810.040289
    6283.8650  38550.313000  63072.989502  6882.979460
    6287.2580  38778.391000  63735.076244  6960.449520
    6290.6550  38980.000000  64340.680223  7035.453093
    6294.0560  39199.133000  64989.793157  7124.982209
    6297.5440  39423.793000  65634.411062  7224.038296
    6300.9540  39626.980000  66253.546758  7326.632518
    6304.4500  39852.691000  66914.188590  7422.745715
    6307.9500  40049.930000  67530.343196  7511.393684
    6311.5380  40321.691000  68288.007286  7607.565117
    6315.0470  40566.980000  68999.181017  7690.268014
    6318.5600  40775.797000  69650.870239  7753.506515
    6322.1610  41011.137000  70359.060285  7812.262104
    6325.7660  41259.004000  71101.765502  7882.555614
    6329.3750  41432.398000  71728.986106  7948.378417
    6333.0730  41649.316000  72451.708184  8030.720467
    6336.6910  41901.762000  73191.945338  8124.599044
    6340.3970  42135.730000  73947.691700  8215.010046
    6344.1090  42347.230000  74637.951541  8321.945916
    6347.8260  42550.254000  75349.721159  8439.408510
    6351.5460  42784.801000  76096.001646  8555.400515
    6355.2710  43035.875000  76906.790083  8687.925344
    6359.0850  43206.477000  77601.085428  8806.969658
    6362.8190  43436.602000  78365.897333  8945.555795
    6366.6450  43656.254000  79127.220881  9088.664231
    6370.4730  43890.434000  79894.058796  9219.303496
    6374.3070  44121.137000  80694.390690  9344.473179
    6378.2300  44331.367000  81455.241487  9446.163547
    6382.0750  44562.121000  82283.606283  9554.391514
    6386.0090  44759.406000  83010.475658  9658.147045
    6389.9480  44994.211000  83823.855352  9773.421770
    6393.8930  45242.547000  84647.760260  9895.238179
    6397.8420  45455.406000  85431.155900  10016.581376
    6401.8820  45690.793000  86290.068601  10128.452186
    6405.8430  45898.703000  87072.496049  10233.852112
    6409.8940  46138.141000  87940.439504  10355.779416
    6413.9500  46401.105000  88857.883033  10485.237061
    6418.0130  46583.594000  89638.832010  10609.221959
    6422.0810  46863.609000  90595.301036  10757.727642
    6426.1530  47097.148000  91467.283153  10883.777166
    6430.3180  47328.219000  92336.767854  11001.354634
    6434.4020  47520.809000  93161.765800  11100.447239
    6438.5790  47754.930000  94098.274323  11218.079385
    6442.7610  47968.574000  94986.301661  11337.237797
    6446.9490  48239.746000  96004.818898  11495.933764
    6451.2300  48464.441000  96942.862037  11651.148441
    6455.4300  48664.664000  97838.414039  11810.893476
    6459.7230  48915.414000  98836.469539  11980.168546
    6463.9340  49126.688000  99717.045566  12126.978890
    6468.2390  49361.488000  100707.122288  12279.307456
    6472.5500  49595.816000  101690.722564  12434.166859
    6476.9550  49803.668000  102618.818894  12581.561082
    6481.2780  50029.047000  103599.435063  12741.480813
    6485.6070  50261.949000  104562.555519  12909.926476
    6490.0310  50496.379000  105568.183234  13062.911488
    6494.4610  50739.336000  106569.330906  13206.415943
    6498.8980  50974.820000  107626.982747  13355.447918
    6503.3410  51217.828000  108668.142572  13513.020128
    6507.7900  51456.359000  109736.830616  13682.108773
    6512.3350  51696.422000  110800.010841  13863.727156
    6516.7970  51906.008000  111797.706316  14030.886029
    6521.3550  52154.117000  112895.919024  14209.564919
    6525.9200  52351.754000  113907.628316  14388.781522
    6530.4920  52581.918000  114969.858773  14565.518610
    6535.0690  52796.609000  116027.596673  14735.787592
    6539.6550  52996.824000  117039.839716  14896.575990
    6544.2470  53209.566000  118094.611103  15060.901667
    6548.9360  53357.832000  119029.870128  15204.759002
    6553.5410  53529.625000  120047.661004  15360.139949
    6558.2440  53768.945000  121207.950543  15539.057140
    6562.9540  53984.789000  122286.740831  15717.498121
    6567.6710  54231.160000  123434.055636  15904.467602
    6572.3950  54426.059000  124495.872768  16085.971631
    6577.2180  54645.480000  125629.211554  16272.992032
    6581.9560  54877.430000  126760.052992  16469.562047
    6586.7920  55076.902000  127845.400689  16663.633777
    6591.5460  55340.906000  129072.265573  16880.252469
    6596.3970  55505.430000  130097.641085  17055.406561
    6601.2570  55764.484000  131342.534693  17267.077941
    6606.1250  55979.063000  132532.917141  17464.269412
    6611.0910  56129.168000  133571.832743  17645.016745
    6615.9730  56385.797000  134858.232974  17859.259274
    6620.9550  56629.953000  136117.168807  18071.065178
    6625.8530  56788.637000  137185.613634  18253.372416
    6630.8500  57018.844000  138426.543030  18469.224562
    6635.8550  57227.578000  139635.005561  18683.595915
    6640.8690  57431.836000  140818.972669  18901.498105
    6645.8910  57645.625000  142046.455407  19121.935945
    6650.9190  57829.934000  143178.432320  19321.889629
    6655.9570  58016.773000  144387.933276  19538.398016
    6661.0960  58230.137000  145656.955708  19758.410298
    6666.1500  58423.027000  146852.474799  19975.959191
    6671.3050  58563.441000  147957.493758  20177.034025
    6676.4690  58761.383000  149178.024411  20389.649353
    6681.6420  58909.848000  150285.087758  20582.785587
    6686.8220  59058.844000  151408.654545  20790.444930
    6692.0110  59084.363000  152256.713972  20964.635701
    6697.3030  58992.406000  152786.316918  21087.370858
    6702.5090  56293.977000  146495.388326  20261.629985
    6707.7240  61478.074000  160784.006691  22291.398597
    6713.0420  60913.699000  160117.111113  22260.715584
    6718.3690  60826.848000  160715.732932  22389.546380
    6723.7050  60869.523000  161646.880497  22570.916705
    6729.0490  60919.723000  162579.511082  22765.817558
    6734.4030  60871.449000  163309.675334  22925.257424
    6739.7660  61506.703000  165868.343253  23348.210913
    6745.1370  61432.480000  166523.524131  23505.691552
    6750.6140  60540.785000  164936.123747  23347.695143
    6756.0030  60145.617000  164670.345924  23378.237586
    6761.4980  61283.973000  168621.128811  24008.318078
    6766.9060  62351.855000  172494.339784  24618.924187
    6772.4200  60941.262000  169434.001995  24248.032553
    6777.9430  62784.195000  175476.366466  25186.707365
    6783.4760  62814.656000  176479.976446  25393.885636
    6789.0180  62842.641000  177463.302289  25607.616836
    6794.5690  62788.152000  178225.997395  25782.846159
    6800.2280  62456.191000  178192.311180  25854.621514
    6805.7990  60205.754000  172682.203144  25123.933787
    6811.4770  65177.844000  187927.376922  27414.733702
    6817.0670  64569.461000  187102.306170  27358.124983
    6822.7650  64427.602000  187685.585227  27514.004890
    6828.4730  64526.270000  188934.317406  27771.419816
    6834.1900  64585.461000  190066.749484  28003.382979
    6839.9180  64768.184000  191593.606337  28306.840667
    6845.6560  64889.426000  192955.903371  28578.842829
    6851.4050  65020.199000  194289.822655  28847.374265
    6857.1630  65137.496000  195646.284675  29124.459647
    6863.0310  65272.320000  197083.216175  29418.068390
    6868.8100  65370.668000  198408.622944  29692.178363
    6874.6980  65501.543000  199854.519551  29988.821622
    6880.4980  65619.945000  201051.820723  30242.998084
    6886.4070  65705.867000  202622.820029  30563.705840
    6892.3270  65829.320000  204060.257839  30858.934881
    6898.2580  65922.305000  205362.118310  31143.696077
    6904.2000  66051.805000  206852.785351  31450.011801
    6910.1520  66197.836000  208377.590642  31770.804595
    6916.1150  66292.391000  209726.253249  32064.199404
    6922.0890  66242.477000  210689.166694  32297.082585
    6928.1750  66358.078000  212127.710576  32613.473537
    6934.1710  66510.219000  213763.786724  32960.425186
    6940.2790  66617.875000  215221.113585  33274.885888
    6946.2960  66655.063000  216395.338958  33561.883646
    6952.4280  66822.773000  218083.918425  33908.439480
    6958.5690  66911.016000  219498.767454  34221.449206
    6964.6200  67009.773000  220914.439379  34527.063798
    6970.7850  67071.070000  222242.427865  34826.159128
    6976.9600  67184.883000  223735.212786  35152.834913
    6983.1470  67282.227000  225187.213355  35467.972834
    6989.3470  67314.094000  226478.866341  35755.697792
    6995.6610  67396.484000  227913.882754  36078.887136
    7001.8820  67483.406000  229333.604257  36392.682733
    7008.1160  67540.852000  230679.806431  36703.959210
    7014.4650  67661.820000  232283.373122  37049.766973
    7020.7220  67748.320000  233779.569898  37383.134832
    7027.0960  67840.344000  235268.181707  37719.985080
    7033.3760  67847.891000  236449.416782  38013.383783
    7039.7740  67940.969000  237978.236263  38359.346934
    7046.1830  67977.570000  239268.367327  38666.778622
    7052.6040  68050.695000  240794.035142  39005.783973
    7059.0390  68140.344000  242280.333992  39340.300861
    7065.4840  68186.523000  243556.983920  39648.334230
    7071.9420  68194.227000  244847.339725  39957.920511
    7078.4130  68364.461000  246665.979960  40364.032896
    7084.8960  68318.219000  247761.225170  40644.660756
    7091.3910  68346.500000  249097.990411  40982.836407
    7097.8990  68325.305000  250245.439878  41277.526353
    7104.5260  68412.641000  251846.208503  41652.759357
    7111.0590  68391.500000  252967.380074  41938.470158
