# XDI/1.0
# Column.1: energy eV
# Column.2: i0
# Column.3: itrans
# Column.4: irefer
# Beamline.name: SSRL 2-3
# Beamline.notes: vert slits = 0.6mm
# Detector.I0: N2 15cm
# Detector.I1: N2 30cm
# Detector.I2: N2 15cm
# Element.edge: K
# Element.symbol: Cr
# Mono.d_spacing: 3.13550
# Mono.name: Si(111)
# Mono.notes: unfocused, detuned 75%, clockwise at E=5990eV
# Sample.formula: CrO2
# Sample.name: CrO2
# Sample.prep: powder on tape (4 layers)
# Sample.reference: Cr foil
# Sample.temperature: 15K
# Scan.start_time: 1997-04-18 13:47:10
# ///
#    Note: mono d_spacing is nominal!
#     exafs to K16
#     396  E XMU XMUR I0
#-------------
#   energy   i0   itrans  irefer
    5759.9890  150201.800000  9658.696713  1224.299353
    5769.9800  149689.800000  9803.702817  1249.300947
    5780.0070  149062.800000  9941.696634  1275.299042
    5790.0030  147824.800000  10040.699556  1296.299658
    5799.9650  147212.800000  10183.697517  1322.299358
    5810.0340  144465.800000  10172.701422  1330.300427
    5820.0000  143924.800000  10319.702591  1359.300108
    5830.0020  143219.800000  10458.703610  1384.299884
    5839.9710  142703.800000  10607.700010  1412.299396
    5849.9750  142039.800000  10745.695975  1438.299194
    5860.0160  141370.800000  10891.702118  1468.299937
    5870.0220  140718.800000  11031.695878  1496.298771
    5879.9930  140459.800000  11203.702756  1528.300489
    5890.0000  139779.800000  11341.701456  1556.300184
    5899.9710  139401.800000  11506.699267  1588.300236
    5909.9780  138808.800000  11650.702127  1616.299774
    5920.0210  138056.800000  11783.699695  1646.299751
    5930.0260  137293.800000  11915.703537  1676.300287
    5939.9950  136621.800000  12053.698285  1704.300094
    5949.9990  136220.800000  12215.701087  1735.299635
    5959.9650  135636.800000  12356.703695  1765.300137
    5969.9670  134849.800000  12485.694719  1792.299740
    5970.4870  134481.800000  12460.702272  1788.300762
    5971.0060  134633.800000  12483.696339  1794.299150
    5971.5260  134412.800000  12477.695141  1792.299911
    5971.9720  134386.800000  12483.705188  1794.300422
    5972.4920  133948.800000  12454.694715  1789.298489
    5973.0120  133022.800000  12370.697140  1777.300326
    5973.5320  133697.800000  12435.695782  1788.299251
    5973.9780  134402.800000  12513.702716  1799.301009
    5974.4980  135227.800000  12604.700044  1811.299899
    5975.0190  135582.800000  12650.699674  1819.299476
    5975.4640  135453.800000  12650.700926  1819.299656
    5975.9850  135678.800000  12676.695752  1823.298690
    5976.5060  135730.800000  12691.703501  1825.300283
    5977.0260  133792.800000  12516.694767  1801.299474
    5977.4730  133821.800000  12530.705399  1805.300508
    5977.9940  134014.800000  12554.701810  1807.300403
    5978.5150  133938.800000  12557.699447  1808.299642
    5979.0370  133829.800000  12558.702397  1807.299683
    5979.4830  133853.800000  12568.694509  1809.298425
    5980.0050  133957.800000  12591.699474  1811.300010
    5980.5260  134031.800000  12602.700107  1815.300621
    5980.9730  134042.800000  12614.704432  1819.300619
    5981.4950  134001.800000  12626.695115  1819.298947
    5982.0160  133938.800000  12630.695210  1819.298485
    5982.4630  134418.800000  12680.701861  1828.299499
    5982.9860  134605.800000  12712.700167  1830.299303
    5983.5070  134635.800000  12723.699478  1833.299511
    5984.0300  134879.800000  12755.697206  1836.298777
    5984.4770  134906.800000  12767.695218  1839.300193
    5984.9990  134889.800000  12774.706341  1841.300561
    5985.5210  134916.800000  12785.699147  1840.299430
    5985.9700  134773.800000  12780.694850  1841.299952
    5986.4920  133445.800000  12676.696706  1823.298827
    5987.0150  130161.800000  12380.705986  1779.300469
    5987.4630  124917.800000  11893.700866  1707.299566
    5987.9860  118912.800000  11310.703066  1621.300251
    5988.5090  119738.800000  11372.699513  1631.299120
    5989.0320  123465.800000  11738.701396  1677.299726
    5989.4800  125892.800000  11989.697642  1707.299276
    5990.0030  127834.800000  12185.696006  1723.299566
    5990.5260  128729.800000  12277.700310  1709.299494
    5990.9750  129176.800000  12328.701614  1679.299948
    5991.4990  129421.800000  12344.700205  1631.299339
    5992.0210  129783.800000  12367.696954  1593.299445
    5992.4710  129720.800000  12354.698654  1564.300014
    5992.9950  129770.800000  12361.697954  1537.300287
    5993.5180  129805.800000  12355.699905  1513.299683
    5993.9670  129798.800000  12357.702579  1492.300008
    5994.4920  129931.800000  12365.702308  1476.299616
    5995.0160  129938.800000  12365.700737  1459.299565
    5995.4650  129974.800000  12360.706190  1449.301311
    5995.9890  129931.800000  12360.695212  1440.298952
    5996.5140  129958.800000  12371.698403  1437.300178
    5996.9630  130005.800000  12390.698434  1438.300294
    5997.4880  130015.800000  12404.694399  1441.299276
    5998.0120  130121.800000  12429.702049  1443.299677
    5998.5380  130403.800000  12460.701229  1439.299865
    5998.9870  130532.800000  12478.704309  1429.301032
    5999.5130  130544.800000  12478.703394  1407.300687
    6000.0370  130530.800000  12460.706513  1379.300124
    6000.4870  130421.800000  12426.705342  1349.301179
    6001.0130  130229.800000  12362.696383  1313.299381
    6001.4620  129872.800000  12275.697685  1280.300108
    6001.9880  128935.800000  12109.697841  1239.299879
    6002.5130  128405.800000  11977.699688  1203.299734
    6002.9640  129078.800000  11969.695379  1186.299823
    6003.4900  130279.800000  11994.694719  1172.299782
    6004.0160  130769.800000  11935.695422  1152.299517
    6004.4660  130731.800000  11853.698117  1131.299414
    6004.9930  130783.800000  11771.702735  1115.300169
    6005.5180  130783.800000  11701.705239  1095.300306
    6005.9700  130804.800000  11647.704659  1082.300789
    6006.4960  130878.800000  11580.697507  1066.299992
    6007.0220  130976.800000  11502.704807  1049.299930
    6007.4730  130790.800000  11402.699210  1031.299956
    6008.0000  130946.800000  11302.705636  1012.300166
    6008.5260  131063.800000  11191.697710   991.300291
    6008.9780  130968.800000  11068.698025   974.300138
    6009.5040  131352.800000  10959.699168   955.299699
    6010.0320  131181.800000  10796.695849   934.299851
    6010.9360  131032.560000  10582.459242   899.063909
    6011.8390  130916.840000  10484.723704   884.357676
    6012.8180  131001.640000  10462.514714   893.180887
    6013.7980  131054.950000  10492.814619   918.534054
    6014.7780  131025.800000  10546.618111   945.414570
    6015.7580  131099.160000  10635.941609   970.826007
    6016.8150  130947.030000  10730.786899   984.765133
    6017.7960  131017.420000  10813.131676   990.233299
    6018.9290  131019.340000  10873.003195   984.233558
    6019.9860  131230.780000  10947.383223   978.760262
    6021.1200  131326.730000  11044.276613   977.817081
    6022.1770  131946.200000  11178.678558   987.402288
    6023.3880  131866.200000  11225.598741   995.517847
    6024.5220  131833.720000  11234.028505  1004.162069
    6025.7330  132007.750000  11232.974819  1007.334399
    6026.8690  132351.300000  11239.436964  1007.037398
    6028.1570  132515.370000  11229.414595   998.270137
    6029.3690  132635.970000  11246.908692   989.031901
    6030.5820  132856.080000  11321.906044   990.321577
    6031.8720  132851.700000  11427.417006   995.140315
    6033.1610  132599.860000  11525.454475   999.490152
    6034.5280  132884.530000  11662.989712  1010.366924
    6035.8190  133345.720000  11809.049616  1023.774363
    6037.1870  133405.420000  11920.621057  1032.711391
    6038.5550  133570.660000  12038.701993  1039.176556
    6040.0000  133824.410000  12155.303390  1044.171312
    6041.3700  133996.670000  12244.403175  1048.694386
    6042.8160  133929.450000  12275.030627  1049.748035
    6044.2640  134306.770000  12318.171277  1058.331395
    6045.7120  134705.590000  12352.822533  1068.442074
    6047.2370  135023.940000  12372.980411  1075.082170
    6048.7630  135245.800000  12419.662021  1085.251615
    6050.2890  135698.190000  12493.858812  1096.952882
    6051.8160  135885.090000  12549.559961  1112.180610
    6053.4220  136176.520000  12608.774813  1129.937120
    6054.9510  136347.450000  12646.511511  1146.224396
    6056.5570  136547.920000  12660.762137  1162.040621
    6058.2410  136735.910000  12666.521383  1171.385693
    6059.8490  137049.410000  12673.795530  1180.259722
    6061.5350  137317.420000  12677.581282  1188.664229
    6063.2220  137408.970000  12681.885815  1191.597283
    6064.9100  137664.030000  12708.691781  1194.058671
    6066.6760  138135.610000  12757.022239  1190.049477
    6068.3650  138452.700000  12789.861043  1182.569663
    6070.1330  138944.330000  12822.216742  1169.620514
    6071.9020  136584.470000  12600.093708  1135.199324
    6073.7490  136053.120000  12574.467859  1123.306309
    6075.5210  136442.300000  12660.372183  1132.944295
    6077.3690  136944.000000  12772.776667  1155.110584
    6079.2200  137412.220000  12883.704725  1180.807248
    6081.1490  137776.950000  12979.135066  1208.030169
    6083.0020  138118.200000  13067.089800  1233.786431
    6084.9340  138523.980000  13155.546430  1261.068593
    6086.8660  139023.280000  13243.533574  1279.881379
    6088.8000  139461.090000  13331.019830  1287.222296
    6090.8130  140021.420000  13424.030354  1279.094507
    6092.8270  140379.280000  13500.542939  1262.493713
    6094.8430  140967.660000  13604.580022  1241.423248
    6096.8590  141488.550000  13699.122711  1222.882522
    6098.8780  142052.950000  13807.181777  1208.869802
    6100.9750  142372.890000  13900.761206  1203.387627
    6103.0750  143084.340000  14031.842997  1214.432934
    6105.1750  143471.310000  14136.443169  1237.008648
    6107.2770  144033.810000  14245.556930  1271.111944
    6109.4590  144470.810000  14320.176405  1308.746070
    6111.6430  145182.340000  14415.319131  1349.908037
    6113.8270  145896.390000  14521.985061  1385.602014
    6116.0130  146503.970000  14623.144702  1412.822571
    6118.2800  146931.050000  14736.824497  1429.572472
    6120.4700  147801.660000  14908.018758  1447.852233
    6122.7400  148388.780000  15058.727469  1457.661911
    6125.0110  148874.440000  15202.946627  1469.999802
    6127.3630  149475.590000  15358.684844  1485.867983
    6129.6390  149745.280000  15470.944514  1504.263963
    6131.9950  150494.480000  15612.695631  1530.189227
    6134.3520  151079.220000  15731.976094  1550.644010
    6136.7900  151681.450000  15839.765755  1566.628093
    6139.1510  152369.220000  15949.072138  1579.143568
    6141.5940  153033.500000  16046.886636  1586.185142
    6144.0380  153943.310000  16179.231567  1595.757297
    6146.4840  154776.620000  16309.062194  1604.857417
    6148.9320  155365.470000  16416.422610  1605.487121
    6151.4620  156450.830000  16561.302104  1613.648518
    6153.9940  157166.720000  16662.691074  1619.335942
    6156.5280  157867.110000  16771.576913  1626.553897
    6159.0640  158705.030000  16914.991878  1632.302055
    6161.6030  159572.470000  17074.927789  1634.578833
    6164.2220  160042.440000  17192.358813  1631.382851
    6166.8440  160779.910000  17344.308481  1632.716858
    6169.4700  161546.910000  17493.783074  1650.581359
    6172.0960  162395.420000  17653.767653  1681.975887
    6174.8060  162983.470000  17799.258242  1719.897652
    6177.5170  163750.020000  17966.267944  1759.349251
    6180.2310  164530.090000  18150.796997  1798.330027
    6182.9480  165475.690000  18344.820917  1836.839250
    6185.6670  166568.810000  18564.376406  1872.878397
    6188.4690  167165.450000  18721.433436  1895.447656
    6191.2730  167573.590000  18856.008154  1915.543890
    6194.0810  168341.280000  19039.111196  1940.171454
    6196.8910  169206.470000  19214.701424  1965.327082
    6199.7030  169963.190000  19383.823620  1988.011483
    6202.5990  170726.410000  19539.446774  2009.227528
    6205.4980  171696.170000  19713.594252  2035.970199
    6208.3990  172271.440000  19862.258484  2061.243358
    6211.3040  173094.230000  20051.423090  2091.043301
    6214.2100  174298.550000  20285.100144  2127.374592
    6217.2020  173846.370000  20336.310405  2141.235456
    6220.1960  174667.720000  20522.019388  2159.624634
    6223.1930  175377.590000  20702.248274  2173.544634
    6226.1930  176171.980000  20897.983625  2180.991690
    6229.1960  176972.890000  21091.235120  2190.970414
    6232.2840  177680.310000  21286.007337  2196.477464
    6235.3750  178058.270000  21421.280767  2193.511877
    6238.4690  179918.730000  21725.077727  2214.076195
    6241.5650  178169.720000  21588.388035  2192.171443
    6244.7480  180100.220000  21916.208423  2219.794166
    6247.8520  181522.250000  22196.535890  2254.946473
    6251.0410  183043.800000  22499.396091  2303.628454
    6254.2330  183750.860000  22694.754497  2352.839316
    6257.4290  184515.440000  22879.633445  2406.578780
    6260.7100  185285.550000  23066.010998  2454.846291
    6263.9130  186301.170000  23280.906423  2491.643562
    6267.2020  187120.310000  23483.329324  2522.972523
    6270.4940  187863.970000  23692.253475  2549.831139
    6273.7900  188725.160000  23916.695626  2577.216078
    6277.1720  188070.860000  23928.657679  2590.131915
    6280.4750  189220.080000  24168.129009  2622.575321
    6283.8650  188167.810000  24131.117038  2625.552030
    6287.2580  186392.080000  24024.626588  2616.054880
    6290.6550  187294.860000  24261.631854  2646.087586
    6294.0560  187974.160000  24461.158852  2673.647130
    6297.5440  188839.970000  24699.202034  2706.737234
    6300.9540  189576.310000  24901.738860  2742.356630
    6304.4500  190188.170000  25095.811269  2774.506658
    6307.9500  190774.550000  25296.381565  2804.183374
    6311.5380  191707.450000  25539.480560  2836.391121
    6315.0470  192538.860000  25773.092040  2863.128773
    6318.5600  193572.800000  26030.206942  2886.393125
    6322.1610  194360.250000  26259.830018  2903.187861
    6325.7660  194964.230000  26476.991375  2919.513830
    6329.3750  195775.720000  26715.654870  2946.366506
    6333.0730  196492.730000  26952.833559  2974.751283
    6336.6910  197358.270000  27201.515985  3004.660870
    6340.3970  198167.330000  27439.724832  3040.104150
    6344.1090  198990.890000  27682.433567  3074.071931
    6347.8260  199795.980000  27923.670828  3115.571947
    6351.5460  200737.590000  28194.404400  3159.600302
    6355.2710  201598.730000  28463.661441  3202.158894
    6359.0850  202436.370000  28746.430843  3249.244848
    6362.8190  203211.550000  29002.718142  3297.859279
    6366.6450  203986.230000  29265.504206  3347.006926
    6370.4730  204565.450000  29494.829393  3388.681722
    6374.3070  205459.190000  29776.646906  3432.882974
    6378.2300  206114.420000  30015.966342  3469.617827
    6382.0750  206783.200000  30271.839818  3505.881201
    6386.0090  206814.480000  30427.206521  3527.671987
    6389.9480  205720.300000  30401.060090  3531.990098
    6393.8930  205633.620000  30526.465895  3557.841503
    6397.8420  205425.470000  30658.357229  3579.217824
    6401.8820  205461.830000  30815.791653  3605.127994
    6405.8430  205741.720000  31017.718190  3629.564235
    6409.8940  206147.120000  31246.178748  3663.533389
    6413.9500  206871.050000  31510.116478  3703.027218
    6418.0130  207332.480000  31747.617664  3740.056388
    6422.0810  207738.450000  31975.591193  3780.607975
    6426.1530  208444.940000  32251.092854  3821.690751
    6430.3180  209136.940000  32519.120932  3858.306099
    6434.4020  209538.450000  32746.636507  3888.444689
    6438.5790  209926.500000  32994.684392  3917.119136
    6442.7610  210280.060000  33234.226424  3954.318454
    6446.9490  210930.140000  33526.292730  3999.046624
    6451.2300  211585.730000  33822.871970  4050.305293
    6455.4300  211807.860000  34040.995319  4090.096414
    6459.7230  212334.500000  34323.589606  4140.410185
    6463.9340  213281.660000  34643.725937  4192.258623
    6468.2390  213351.330000  34846.344646  4228.634990
    6472.5500  214288.530000  35192.513592  4284.540784
    6476.9550  214719.250000  35444.155056  4326.969277
    6481.2780  214996.480000  35679.334510  4365.931881
    6485.6070  216074.250000  36046.043185  4425.428450
    6490.0310  216249.520000  36243.241631  4467.450671
    6494.4610  216806.310000  36536.960852  4508.999887
    6498.8980  217351.620000  36821.186913  4550.078160
    6503.3410  217816.470000  37093.947920  4593.690941
    6507.7900  218518.810000  37430.208705  4648.827781
    6512.3350  218653.690000  37659.986095  4694.497856
    6516.7970  219875.080000  38077.271931  4760.694528
    6521.3550  220510.000000  38402.057748  4816.415819
    6525.9200  220946.420000  38698.360263  4872.670912
    6530.4920  221494.370000  38994.209921  4924.457772
    6535.0690  221996.840000  39303.522564  4970.766967
    6539.6550  222956.840000  39701.390415  5031.616026
    6544.2470  223611.360000  40034.738711  5081.983027
    6548.9360  223601.370000  40257.642768  5117.888073
    6553.5410  223962.940000  40548.045990  5163.319010
    6558.2440  224558.000000  40896.931088  5220.274704
    6562.9540  224996.590000  41202.348062  5270.763594
    6567.6710  225849.700000  41586.297824  5334.780464
    6572.3950  226374.330000  41891.751941  5388.332439
    6577.2180  227642.470000  42361.726773  5465.405313
    6581.9560  228115.140000  42664.214523  5519.015547
    6586.7920  228821.330000  43036.193919  5588.151098
    6591.5460  229519.030000  43390.691887  5649.815815
    6596.3970  230108.250000  43735.706479  5710.004721
    6601.2570  230967.000000  44125.235095  5784.730903
    6606.1250  231833.270000  44535.269555  5850.975793
    6611.0910  232399.050000  44897.851247  5911.762068
    6615.9730  232979.340000  45255.933115  5980.073029
    6620.9550  233602.170000  45649.494806  6041.912134
    6625.8530  234492.520000  46074.593904  6111.276613
    6630.8500  234908.370000  46412.207774  6172.176452
    6635.8550  235203.750000  46720.318690  6232.603606
    6640.8690  236093.660000  47155.968701  6308.560942
    6645.8910  237212.080000  47646.138754  6393.044441
    6650.9190  237545.020000  47974.813930  6448.065500
    6655.9570  237660.480000  48258.988498  6506.606859
    6661.0960  238507.450000  48671.689993  6584.678736
    6666.1500  238779.950000  48991.872476  6641.278011
    6671.3050  239057.970000  49321.597823  6702.409408
    6676.4690  239073.520000  49591.830856  6758.068468
    6681.6420  239244.560000  49888.588656  6809.258923
    6686.8220  239680.140000  50255.866402  6876.977816
    6692.0110  239122.230000  50416.618042  6912.226802
    6697.3030  236133.860000  50066.936875  6880.008226
    6702.5090  227888.000000  48632.706616  6698.310164
    6707.7240  255795.640000  54861.062041  7573.148086
    6713.0420  244070.830000  52602.858904  7281.511542
    6718.3690  242750.520000  52595.220431  7299.408002
    6723.7050  242382.730000  52794.076968  7342.827642
    6729.0490  242434.470000  53107.462073  7400.787749
    6734.4030  242170.720000  53344.342759  7454.269325
    6739.7660  245214.480000  54257.718356  7602.272807
    6745.1370  243174.780000  54173.640042  7612.818293
    6750.6140  239152.590000  53523.071294  7535.888941
    6756.0030  237261.920000  53404.001552  7542.484813
    6761.4980  246867.770000  55944.484407  7931.616406
    6766.9060  248569.140000  56613.418677  8050.265210
    6772.4200  243150.030000  55678.922280  7941.456210
    6777.9430  250117.440000  57613.883265  8238.172765
    6783.4760  249622.360000  57827.429146  8294.421794
    6789.0180  249885.810000  58222.451998  8370.193927
    6794.5690  250447.780000  58691.941565  8463.488456
    6800.2280  248439.270000  58540.008669  8461.322027
    6805.7990  237108.280000  56140.580687  8136.685533
    6811.4770  259929.800000  61913.645184  8993.576448
    6817.0670  255077.840000  61111.236547  8907.002396
    6822.7650  254203.410000  61250.362838  8946.950727
    6828.4730  253403.500000  61411.927789  8992.420717
    6834.1900  253744.090000  61852.111633  9078.438799
    6839.9180  253893.220000  62236.757695  9163.972694
    6845.6560  254133.860000  62638.877776  9245.030243
    6851.4050  255034.030000  63209.524078  9343.622147
    6857.1630  256399.720000  63922.769812  9470.755033
    6863.0310  257298.910000  64509.434407  9584.406769
    6868.8100  252560.640000  63661.652409  9480.588366
    6874.6980  253447.870000  64257.353003  9597.303378
    6880.4980  253948.640000  64731.635702  9700.544732
    6886.4070  254106.920000  65138.392591  9786.316391
    6892.3270  253993.720000  65481.623256  9867.608679
    6898.2580  253814.030000  65802.434327  9943.447917
    6904.2000  254452.870000  66344.683682  10049.798979
    6910.1520  254537.230000  66749.520393  10140.690699
    6916.1150  254629.110000  67145.843062  10227.109777
    6922.0890  254252.500000  67415.695904  10301.060671
    6928.1750  254527.420000  67876.004055  10401.526465
    6934.1710  254437.860000  68246.874705  10491.533947
    6940.2790  254811.810000  68727.215637  10592.055857
    6946.2960  255104.300000  69181.153768  10692.124914
    6952.4280  255299.280000  69637.520103  10794.713289
    6958.5690  255839.800000  70177.480386  10898.841153
    6964.6200  256016.830000  70630.861768  10999.482041
    6970.7850  256629.390000  71196.807709  11114.660269
    6976.9600  256528.450000  71551.292823  11203.380629
    6983.1470  256485.050000  71945.247498  11290.609678
    6989.3470  256596.160000  72371.710721  11389.370261
    6995.6610  256835.800000  72836.701540  11486.666986
    7001.8820  257230.940000  73364.214849  11602.496386
    7008.1160  258895.610000  74258.253538  11772.848790
    7014.4650  259810.800000  74925.828721  11919.737908
    7020.7220  260574.520000  75551.828092  12053.148180
    7027.0960  260279.750000  75891.448808  12127.092680
    7033.3760  260159.480000  76255.521623  12218.568802
    7039.7740  260422.770000  76738.101790  12327.571620
    7046.1830  260466.550000  77184.174774  12433.089743
    7052.6040  260494.860000  77618.836002  12538.151671
    7059.0390  260358.690000  77992.935899  12636.737639
    7065.4840  260409.030000  78441.614769  12741.859373
    7071.9420  260267.890000  78841.731696  12836.497064
    7078.4130  260317.280000  79277.407960  12941.681088
    7084.8960  259940.190000  79594.625051  13029.389884
    7091.3910  259789.610000  79973.322566  13123.625919
    7097.8990  259812.550000  80410.551848  13234.385563
    7104.5260  259984.020000  80890.239480  13335.666899
    7111.0590  259706.000000  81231.509667  13426.498066
