# XDI/1.0
# Column.1: energy eV
# Column.2: i0
# Column.3: itrans
# Column.4: irefer
# Beamline.name: SSRL 2-3
# Beamline.notes: vert slits = 0.6mm
# Detector.I0: N2 15cm
# Detector.I1: N2 30cm
# Detector.I2: N2 15cm
# Element.edge: K
# Element.symbol: Cr
# Mono.d_spacing: 3.13550
# Mono.name: Si(111)
# Mono.notes: unfocused, detuned 75%, clockwise at E=5990eV
# Sample.formula: CrO2
# Sample.name: CrO2
# Sample.prep: powder on tape (4 layers)
# Sample.reference: Cr foil
# Sample.temperature: 15K
# Scan.start_time: 1997-04-18 13:47:10
# ///
#    Note: mono d_spacing is nominal!
#     exafs to K16
#     396  E XMU XMUR I0
#-------------
#   energy   i0   itrans  irefer
    5759.9890  146750.800000  9436.695917  1196.299342
    5769.9800  146257.800000  9578.699374  1220.300107
    5780.0070  145524.800000  9707.701299  1245.300067
    5790.0030  144895.800000  9847.699390  1271.299828
    5799.9650  144100.800000  9972.696958  1295.299645
    5810.0340  143598.800000  10119.702842  1324.300374
    5820.0000  142914.800000  10252.695519  1348.298798
    5830.0020  142392.800000  10401.701889  1377.300516
    5839.9710  141702.800000  10532.702138  1404.299928
    5849.9750  141146.800000  10677.700310  1432.299914
    5860.0160  140584.800000  10827.702166  1463.299570
    5870.0220  139802.800000  10955.699884  1488.300490
    5879.9930  139049.800000  11087.697301  1514.299782
    5890.0000  138508.800000  11236.696117  1545.299684
    5899.9710  137762.800000  11371.694915  1573.300065
    5909.9780  137110.800000  11510.703689  1601.300895
    5920.0210  136511.800000  11654.694472  1631.299698
    5930.0260  135724.800000  11779.695232  1657.299228
    5939.9950  135027.800000  11910.694371  1683.299210
    5949.9990  134338.800000  12044.702868  1714.300228
    5959.9650  133818.800000  12188.704303  1742.300987
    5969.9670  131085.800000  12129.700971  1744.299549
    5970.4870  130990.800000  12131.702793  1744.299586
    5971.0060  130839.800000  12126.700496  1743.299661
    5971.5260  130985.800000  12153.703284  1748.300058
    5971.9720  130598.800000  12122.703641  1744.301220
    5972.4920  129887.800000  12071.701577  1735.299465
    5973.0120  128966.800000  11991.703155  1726.301065
    5973.5320  129540.800000  12045.701682  1732.299799
    5973.9780  130615.800000  12154.703201  1748.300529
    5974.4980  131372.800000  12241.699104  1762.300545
    5975.0190  131574.800000  12262.704617  1765.301524
    5975.4640  131405.800000  12256.706359  1764.300413
    5975.9850  131483.800000  12275.699406  1767.299455
    5976.5060  131388.800000  12276.696434  1770.299722
    5977.0260  131450.800000  12291.704908  1772.300884
    5977.4730  131573.800000  12308.694849  1774.299879
    5977.9940  131423.800000  12309.695649  1775.299633
    5978.5150  131399.800000  12314.698932  1776.300062
    5979.0370  131573.800000  12337.703646  1778.300105
    5979.4830  131619.800000  12352.697540  1782.299641
    5980.0050  131599.800000  12358.702850  1782.299704
    5980.5260  131455.800000  12352.700133  1782.300015
    5980.9730  131496.800000  12368.705304  1785.300086
    5981.4950  131451.800000  12371.695525  1785.299600
    5982.0160  131537.800000  12393.699799  1790.300106
    5982.4630  131592.800000  12403.706090  1790.300184
    5982.9860  131717.800000  12428.705480  1794.301402
    5983.5070  131330.800000  12396.700284  1789.299730
    5984.0300  131560.800000  12429.704128  1795.299934
    5984.4770  131484.800000  12426.698410  1793.299565
    5984.9990  131664.800000  12461.704465  1798.300944
    5985.5210  131671.800000  12471.704804  1799.301372
    5985.9700  131353.800000  12451.703565  1796.300812
    5986.4920  130018.800000  12340.703856  1779.300048
    5987.0150  126958.800000  12069.705366  1740.300195
    5987.4630  122031.800000  11606.701729  1671.299833
    5987.9860  116014.800000  11032.701974  1588.300806
    5988.5090  118404.800000  11247.695488  1617.298658
    5989.0320  122918.800000  11693.696954  1677.299358
    5989.4800  125449.800000  11944.700158  1707.300859
    5990.0030  127419.800000  12140.696388  1722.299208
    5990.5260  127218.800000  12124.696902  1695.299529
    5990.9750  127611.800000  12165.703971  1666.300406
    5991.4990  128013.800000  12205.700181  1622.300284
    5992.0210  128139.800000  12208.700526  1582.300587
    5992.4710  128261.800000  12207.694963  1553.299670
    5992.9950  128157.800000  12191.699083  1522.299951
    5993.5180  128259.800000  12201.695218  1500.299709
    5993.9670  128355.800000  12211.694952  1484.299725
    5994.4920  128363.800000  12208.695210  1465.299151
    5995.0160  128363.800000  12201.701632  1447.299520
    5995.4650  128293.800000  12196.706377  1435.300086
    5995.9890  128305.800000  12198.701079  1424.300017
    5996.5140  128138.800000  12193.695446  1422.299675
    5996.9630  128113.800000  12205.698483  1420.299737
    5997.4880  128204.800000  12227.701411  1422.299581
    5998.0120  128254.800000  12242.700848  1424.300634
    5998.5380  128143.800000  12243.694513  1418.298723
    5998.9870  128077.800000  12235.699799  1405.300125
    5999.5130  127935.800000  12220.704159  1383.300867
    6000.0370  128007.800000  12212.697627  1356.299723
    6000.4870  127829.800000  12174.695904  1326.299444
    6001.0130  127665.800000  12115.697332  1291.299289
    6001.4620  127298.800000  12028.695405  1260.299107
    6001.9880  126338.800000  11864.695042  1218.299687
    6002.5130  125887.800000  11737.701764  1183.299868
    6002.9640  126355.800000  11712.700162  1165.300201
    6003.4900  127551.800000  11732.696966  1150.299745
    6004.0160  128105.800000  11682.704322  1132.300592
    6004.4660  128155.800000  11611.705815  1114.300341
    6004.9930  128097.800000  11529.696770  1095.299711
    6005.5180  128026.800000  11452.701225  1076.300413
    6005.9700  127865.800000  11378.701021  1060.300413
    6006.4960  127862.800000  11307.698920  1045.299883
    6007.0220  127687.800000  11209.697166  1025.299969
    6007.4730  127638.800000  11118.700271  1009.300382
    6008.0000  127698.800000  11012.702353   990.299720
    6008.5260  127636.800000  10888.701920   969.299853
    6008.9780  127527.800000  10772.702412   950.299938
    6009.5040  127543.800000  10635.695407   930.299999
    6010.0320  127430.800000  10483.697926   905.299430
    6010.9360  127344.560000  10276.456309   875.063769
    6011.8390  127345.840000  10194.726074   861.357656
    6012.8180  127336.640000  10167.509450   870.180418
    6013.7980  127368.950000  10188.809324   894.534322
    6014.7780  127218.800000  10239.619275   921.415171
    6015.7580  127280.150000  10324.942425   946.825530
    6016.8150  127449.030000  10444.781962   963.765299
    6017.7960  127402.420000  10514.137060   967.234547
    6018.9290  127392.340000  10569.998054   962.232297
    6019.9860  127493.770000  10630.385964   955.760902
    6021.1200  127462.730000  10712.272086   954.816607
    6022.1770  127496.200000  10794.681512   958.402503
    6023.3880  127567.200000  10854.603596   968.518480
    6024.5220  127615.710000  10873.030775   975.162147
    6025.7330  127796.750000  10869.982718   983.335526
    6026.8690  127934.300000  10861.439441   981.037936
    6028.1570  128233.370000  10867.414399   972.269555
    6029.3690  128264.960000  10875.897741   962.030739
    6030.5820  128429.080000  10945.909725   964.321866
    6031.8720  128590.700000  11060.425772   968.141032
    6033.1610  128983.860000  11210.448893   978.489992
    6034.5280  128960.520000  11320.987580   985.366438
    6035.8190  129179.720000  11441.048262   995.773570
    6037.1870  129374.420000  11561.616405  1004.710742
    6038.5550  129652.660000  11684.696902  1012.175554
    6040.0000  129679.410000  11782.299086  1016.170681
    6041.3700  129911.670000  11866.410454  1017.695501
    6042.8160  130168.450000  11934.034749  1024.748668
    6044.2640  130278.770000  11955.166633  1031.330317
    6045.7120  130541.590000  11975.823070  1039.441836
    6047.2370  130803.940000  11996.987312  1043.082802
    6048.7630  131044.800000  12032.667581  1051.252436
    6050.2890  131275.190000  12089.856641  1060.952200
    6051.8160  131623.090000  12161.563668  1076.180781
    6053.4220  132057.520000  12233.775195  1096.937916
    6054.9510  132279.450000  12270.508866  1113.224468
    6056.5570  132484.920000  12285.759503  1128.041370
    6058.2410  132868.910000  12301.522105  1139.386549
    6059.8490  133156.410000  12310.794170  1148.259655
    6061.5350  133363.420000  12313.582027  1153.663906
    6063.2220  133775.970000  12352.883717  1162.597278
    6064.9100  133843.030000  12360.695188  1161.059204
    6066.6760  134130.610000  12391.020124  1155.049300
    6068.3650  134495.700000  12428.860504  1147.569501
    6070.1330  134931.330000  12457.227572  1137.621845
    6071.9020  135233.470000  12481.089916  1125.198756
    6073.7490  135612.120000  12542.473343  1121.306756
    6075.5210  136111.300000  12644.368439  1133.944127
    6077.3690  136426.000000  12735.779847  1154.110991
    6079.2200  136923.220000  12846.704647  1179.807549
    6081.1490  137209.950000  12940.141635  1206.031521
    6083.0020  137578.200000  13028.085924  1232.785795
    6084.9340  138062.980000  13125.553222  1258.068940
    6086.8660  138754.280000  13236.532216  1281.881088
    6088.8000  139102.090000  13311.018142  1286.223138
    6090.8130  139434.420000  13383.028618  1278.094610
    6092.8270  139945.280000  13474.546874  1258.493649
    6094.8430  140320.660000  13556.582628  1236.423864
    6096.8590  140763.550000  13647.120300  1218.881375
    6098.8780  141335.950000  13758.181709  1206.870542
    6100.9750  141894.890000  13874.749040  1200.386481
    6103.0750  142417.340000  13983.845370  1210.433744
    6105.1750  142740.310000  14084.444555  1233.008312
    6107.2770  143360.810000  14192.555965  1268.112532
    6109.4590  143819.810000  14276.176894  1305.745571
    6111.6430  144376.340000  14358.317092  1345.908652
    6113.8270  145079.390000  14450.978230  1378.600852
    6116.0130  145514.970000  14539.149374  1405.821695
    6118.2800  145990.050000  14657.827142  1425.572473
    6120.4700  146632.660000  14797.016132  1438.851963
    6122.7400  147219.780000  14953.727087  1448.662290
    6125.0110  147712.440000  15092.960013  1459.000206
    6127.3630  148569.590000  15269.684659  1477.867940
    6129.6390  148550.280000  15346.945850  1493.264237
    6131.9950  149294.480000  15493.703744  1520.190615
    6134.3520  150011.220000  15629.983540  1540.644894
    6136.7900  150713.450000  15742.772197  1558.628631
    6139.1510  151163.220000  15822.076003  1567.142943
    6141.5940  151629.500000  15899.887684  1574.184004
    6144.0380  152237.310000  16002.221452  1581.757473
    6146.4840  152785.620000  16107.061243  1587.857721
    6148.9320  153394.470000  16208.419651  1587.487914
    6151.4620  154261.830000  16334.302649  1590.647798
    6153.9940  154839.720000  16422.683467  1594.336269
    6156.5280  155510.110000  16524.576302  1603.552925
    6159.0640  156134.030000  16647.995271  1607.301692
    6161.6030  156654.470000  16765.924984  1605.577575
    6164.2220  157378.440000  16913.368602  1603.383928
    6166.8440  158019.910000  17055.317599  1603.718568
    6169.4700  158752.910000  17202.779478  1620.581391
    6172.0960  159291.420000  17326.763944  1649.975361
    6174.8060  159966.470000  17477.253418  1690.897124
    6177.5170  160666.020000  17644.264984  1730.348443
    6180.2310  161219.090000  17802.791082  1766.328763
    6182.9480  161019.690000  17861.823245  1791.839338
    6185.6670  162561.810000  18128.373339  1827.877209
    6188.4690  163532.450000  18330.428556  1857.446029
    6191.2730  163625.590000  18424.012298  1871.544134
    6194.0810  164618.280000  18626.109616  1896.170525
    6196.8910  164279.470000  18669.703249  1908.327231
    6199.7030  165410.190000  18872.831270  1937.013568
    6202.5990  166197.410000  19033.456492  1961.227002
    6205.4980  167250.170000  19221.601322  1985.970508
    6208.3990  167949.440000  19375.259752  2011.243086
    6211.3040  167610.230000  19416.422418  2029.042941
    6214.2100  168224.550000  19585.112163  2059.375320
    6217.2020  169126.370000  19789.315819  2088.237037
    6220.1960  169583.720000  19938.025313  2103.626433
    6223.1930  170454.590000  20129.248909  2115.543867
    6226.1930  171272.980000  20326.991998  2127.991672
    6229.1960  172301.890000  20543.243691  2138.971514
    6232.2840  173143.310000  20741.004468  2147.476932
    6235.3750  174166.270000  20962.275503  2153.510751
    6238.4690  176036.730000  21260.070021  2169.074690
    6241.5650  174066.720000  21107.378557  2143.169213
    6244.7480  175721.220000  21382.199182  2169.792980
    6247.8520  176915.250000  21645.548133  2196.947297
    6251.0410  178381.800000  21935.387428  2245.627960
    6254.2330  179153.860000  22137.743217  2292.837170
    6257.4290  178414.440000  22125.618794  2323.577813
    6260.7100  179154.550000  22302.010718  2369.848055
    6263.9130  180511.170000  22559.915014  2412.645008
    6267.2020  181732.310000  22808.329089  2449.972451
    6270.4940  182467.970000  23012.272274  2472.831006
    6273.7900  183525.160000  23248.712864  2501.217891
    6277.1720  184358.860000  23449.664419  2532.130857
    6280.4750  185292.080000  23658.143528  2562.576995
    6283.8650  186042.810000  23858.124483  2590.551555
    6287.2580  186883.080000  24095.622396  2620.054661
    6290.6550  187690.860000  24330.634800  2648.086352
    6294.0560  186685.160000  24304.160789  2649.647366
    6297.5440  188143.970000  24613.189742  2692.737859
    6300.9540  188747.310000  24803.732264  2727.354622
    6304.4500  189557.170000  25023.807399  2763.504630
    6307.9500  190279.550000  25237.381964  2794.184538
    6311.5380  191255.450000  25492.491786  2829.392344
    6315.0470  192103.860000  25731.094500  2856.128862
    6318.5600  193070.800000  25975.218815  2884.394390
    6322.1610  193403.250000  26140.854249  2894.190313
    6325.7660  194383.230000  26395.977282  2913.513155
    6329.3750  195048.720000  26625.658963  2941.366807
    6333.0730  195700.730000  26847.819429  2961.747911
    6336.6910  196456.270000  27088.515669  2991.661330
    6340.3970  197107.330000  27306.708448  3021.101206
    6344.1090  198018.890000  27552.421602  3058.071322
    6347.8260  198849.980000  27803.660121  3098.569865
    6351.5460  199448.590000  28025.407484  3137.601043
    6355.2710  200321.730000  28292.668969  3181.159408
    6359.0850  201142.370000  28569.421450  3227.242204
    6362.8190  201815.550000  28813.705560  3269.859970
    6366.6450  202563.230000  29076.494096  3321.003794
    6370.4730  203332.450000  29332.828758  3370.682763
    6374.3070  204576.190000  29653.627837  3418.881577
    6378.2300  205436.420000  29928.990552  3458.619754
    6382.0750  206260.200000  30208.836428  3495.881211
    6386.0090  206989.480000  30468.183363  3532.670041
    6389.9480  207984.300000  30758.076067  3572.992915
    6393.8930  208035.620000  30910.480929  3600.844189
    6397.8420  207460.470000  30976.374948  3615.220377
    6401.8820  208167.830000  31239.790830  3648.129715
    6405.8430  208988.720000  31519.716770  3685.566625
    6409.8940  210317.120000  31885.185161  3736.534161
    6413.9500  211272.050000  32196.142251  3780.028841
    6418.0130  211998.480000  32462.614523  3825.055989
    6422.0810  212840.450000  32751.600267  3870.608864
    6426.1530  213673.940000  33045.097130  3916.691171
    6430.3180  214487.940000  33344.122269  3958.307413
    6434.4020  214611.450000  33534.648364  3983.445642
    6438.5790  213820.500000  33593.677446  3991.119939
    6442.7610  214817.060000  33922.237819  4038.320074
    6446.9490  215451.140000  34221.296512  4087.048843
    6451.2300  216178.730000  34534.869344  4139.303427
    6455.4300  216728.860000  34821.989840  4191.095180
    6459.7230  217447.500000  35127.575264  4243.411064
    6463.9340  218243.660000  35441.701845  4295.255945
    6468.2390  218698.330000  35698.343660  4338.632870
    6472.5500  219305.530000  35992.510376  4385.536081
    6476.9550  219836.250000  36274.171208  4431.973415
    6481.2780  220402.480000  36561.337495  4479.934069
    6485.6070  221365.250000  36914.043165  4539.428178
    6490.0310  222067.520000  37224.251830  4589.451324
    6494.4610  222708.310000  37521.942243  4634.998560
    6498.8980  223312.620000  37822.178870  4682.076336
    6503.3410  223995.470000  38147.942653  4728.688203
    6507.7900  224875.810000  38511.207170  4787.830060
    6512.3350  226378.690000  38992.963878  4863.494519
    6516.7970  225172.080000  38979.267799  4881.692141
    6521.3550  227074.000000  39532.058706  4966.418495
    6525.9200  228096.420000  39942.360776  5034.672273
    6530.4920  227756.370000  40100.207346  5068.457370
    6535.0690  228980.840000  40544.548475  5136.774390
    6539.6550  229852.840000  40915.390089  5198.615177
    6544.2470  230377.360000  41225.774693  5242.988500
    6548.9360  230571.370000  41504.649029  5282.885506
    6553.5410  231016.940000  41812.027658  5334.317998
    6558.2440  231677.000000  42159.926472  5392.273848
    6562.9540  232017.590000  42470.350100  5444.762774
    6567.6710  230794.700000  42475.293215  5459.780409
    6572.3950  232166.330000  42955.773126  5537.333429
    6577.2180  233219.470000  43387.697863  5604.405257
    6581.9560  233149.140000  43584.184104  5649.010147
    6586.7920  233687.330000  43935.165034  5712.147373
    6591.5460  232193.030000  43852.689524  5719.812651
    6596.3970  232658.250000  44185.719059  5780.005526
    6601.2570  233488.000000  44573.240222  5848.730820
    6606.1250  233779.270000  44869.280273  5901.977000
    6611.0910  234448.050000  45257.845130  5969.761806
    6615.9730  234708.340000  45569.910304  6026.067469
    6620.9550  235264.170000  45933.514336  6087.911054
    6625.8530  235595.520000  46250.599975  6146.276408
    6630.8500  236038.370000  46598.221565  6208.177512
    6635.8550  236292.750000  46907.355760  6266.603507
    6640.8690  236837.660000  47272.982014  6334.557286
    6645.8910  237178.080000  47604.117109  6396.041295
    6650.9190  237798.020000  47995.807239  6468.062845
    6655.9570  238207.480000  48342.981864  6529.602435
    6661.0960  238712.450000  48697.694568  6595.678682
    6666.1500  239152.950000  49042.894121  6658.280749
    6671.3050  239180.970000  49313.627467  6708.413347
    6676.4690  239603.520000  49674.839493  6771.072929
    6681.6420  239364.560000  49880.579838  6819.258526
    6686.8220  239956.140000  50281.848976  6893.977171
    6692.0110  239269.230000  50413.621342  6920.225829
    6697.3030  237909.860000  50420.904577  6945.999362
    6702.5090  229969.000000  49045.700035  6776.308721
    6707.7240  257253.640000  55135.044167  7633.149390
    6713.0420  247131.830000  53234.885235  7386.514102
    6718.3690  245611.520000  53200.197072  7400.400355
    6723.7050  245724.730000  53503.064127  7462.831693
    6729.0490  245086.470000  53662.427744  7498.778098
    6734.4030  243738.720000  53673.308626  7523.262086
    6739.7660  246555.480000  54550.726986  7669.274635
    6745.1370  245213.780000  54627.662929  7702.819275
    6750.6140  240938.590000  53911.083509  7622.886378
    6756.0030  238862.920000  53765.007154  7625.484267
    6761.4980  247469.770000  56088.479399  7977.614510
    6766.9060  247698.140000  56399.417328  8041.268363
    6772.4200  242167.030000  55438.910049  7924.456165
    6777.9430  248052.440000  57108.911651  8184.173067
    6783.4760  247251.360000  57242.433685  8231.419438
    6789.0180  246622.810000  57413.420604  8280.191403
    6794.5690  245837.780000  57551.942481  8322.493317
    6800.2280  244156.270000  57485.024541  8336.324994
    6805.7990  235345.280000  55698.583315  8103.691612
    6811.4770  257806.800000  61388.619462  8946.572224
    6817.0670  252446.840000  60461.251689  8838.999503
    6822.7650  251698.410000  60629.318825  8881.945182
    6828.4730  251062.500000  60800.980295  8933.425466
    6834.1900  250510.090000  61030.100858  8986.434830
    6839.9180  250233.220000  61288.753711  9052.974367
    6845.6560  250408.860000  61687.913603  9133.043786
    6851.4050  250460.030000  62041.551553  9208.632386
    6857.1630  250598.720000  62441.738295  9285.749700
    6863.0310  250471.910000  62765.450983  9362.410398
    6868.8100  250673.640000  63170.653758  9443.586691
    6874.6980  251117.870000  63649.370218  9534.305796
    6880.4980  249815.640000  63668.580926  9565.541422
    6886.4070  249714.920000  64018.361920  9642.312321
    6892.3270  249915.720000  64419.651948  9727.614933
    6898.2580  250240.030000  64855.425998  9819.444743
    6904.2000  250372.870000  65276.708408  9911.803173
    6910.1520  250416.230000  65660.495167  9999.683609
    6916.1150  250526.110000  66049.809490  10087.097648
    6922.0890  250536.500000  66423.679939  10175.049727
    6928.1750  242935.420000  64765.991736  9940.523117
    6934.1710  242911.860000  65129.895071  10025.528214
    6940.2790  242978.810000  65498.237763  10118.062955
    6946.2960  242923.300000  65863.127022  10195.125926
    6952.4280  242961.280000  66244.542829  10275.722653
    6958.5690  242918.800000  66602.441173  10362.838970
    6964.6200  243076.830000  67017.887824  10455.483381
    6970.7850  243204.390000  67421.786054  10549.655453
    6976.9600  243137.450000  67776.255605  10631.368477
    6983.1470  243183.050000  68176.262831  10717.612882
    6989.3470  243236.160000  68573.751016  10805.376380
    6995.6610  243371.800000  68985.705411  10904.671934
    7001.8820  243644.940000  69447.217359  11002.494299
    7008.1160  243405.610000  69769.240266  11082.853993
    7014.4650  243373.800000  70145.771939  11169.731029
    7020.7220  243514.520000  70557.823923  11262.150285
    7027.0960  243476.750000  70940.426072  11352.096669
    7033.3760  243451.480000  71310.505721  11437.559833
    7039.7740  243552.770000  71737.070307  11536.565890
    7046.1830  243546.550000  72134.187136  11629.094386
    7052.6040  243594.860000  72542.778451  11728.144142
    7059.0390  243496.690000  72897.937687  11814.745252
    7065.4840  243634.030000  73350.566096  11918.850499
    7071.9420  243419.890000  73692.784781  12007.505283
    7078.4130  243587.280000  74140.453738  12112.685813
    7084.8960  243033.190000  74373.598380  12177.390789
    7091.3910  242887.610000  74729.342986  12258.625677
    7097.8990  242865.550000  75135.563707  12359.388764
    7104.5260  242726.020000  75501.257937  12451.677061
    7111.0590  242868.000000  75957.508547  12552.502974
