# XDI/1.0
# Column.1: energy eV
# Column.2: i0
# Column.3: itrans
# Column.4: irefer
# Beamline.name: SSRL 2-3
# Beamline.notes: vert slits = 0.6mm
# Detector.I0: N2 15cm
# Detector.I1: N2 30cm
# Detector.I2: N2 15cm
# Element.edge: K
# Element.symbol: Cr
# Mono.d_spacing: 3.13550
# Mono.name: Si(111)
# Mono.notes: unfocused, detuned 75%, clockwise at E=5990eV
# Sample.formula: K2Cr2O7
# Sample.name: K2Cr2O7
# Sample.prep: powder on tape (4 layers)
# Sample.reference: Cr foil
# Sample.temperature: 15K
# Scan.start_time: 1997-04-18 12:31:25
# ///
#    Note: mono d_spacing is nominal!
#     exafs to K16
#     396  E XMU XMUR I0
#-------------
#   energy   i0   itrans  irefer
    5759.9890  155472.800000  4802.697776   614.299796
    5769.9800  154706.800000  4882.701792   628.300146
    5780.0070  154201.800000  4975.700348   642.299954
    5790.0030  153798.800000  5069.698025   658.299855
    5799.9650  153212.800000  5157.700315   674.299978
    5810.0340  152463.800000  5245.702609   690.300127
    5820.0000  151605.800000  5325.697724   704.299724
    5830.0020  151135.800000  5421.701903   721.299935
    5839.9710  150460.800000  5510.699605   737.299999
    5849.9750  149946.800000  5606.701421   754.300510
    5860.0160  148863.800000  5681.701763   770.300018
    5870.0220  148514.800000  5790.702514   788.300132
    5879.9930  147734.800000  5876.702319   805.300141
    5890.0000  147253.800000  5976.700314   825.299960
    5899.9710  146234.800000  6054.698299   840.299880
    5909.9780  145602.800000  6150.702890   858.300821
    5920.0210  144781.800000  6238.699714   876.299617
    5930.0260  144187.800000  6339.701064   894.300542
    5939.9950  143458.800000  6427.700707   912.300257
    5949.9990  142691.800000  6518.700587   931.299887
    5959.9650  141959.800000  6602.701734   948.300275
    5969.9670  141041.800000  6680.696846   962.299352
    5970.4870  141111.800000  6684.701010   964.300302
    5971.0060  141026.800000  6694.698491   965.299313
    5971.5260  140757.800000  6686.701364   962.299720
    5971.9720  140239.800000  6664.699154   960.300344
    5972.4920  139275.800000  6625.700750   954.300316
    5973.0120  138515.800000  6598.698275   951.300197
    5973.5320  139379.800000  6643.696970   959.300008
    5973.9780  140324.800000  6691.698549   963.300120
    5974.4980  141128.800000  6737.702211   969.300064
    5975.0190  141359.800000  6751.700595   972.300285
    5975.4640  141290.800000  6752.698332   972.300056
    5975.9850  140730.800000  6733.700511   972.299733
    5976.5060  141038.800000  6755.702951   975.300188
    5977.0260  141159.800000  6766.700396   977.300189
    5977.4730  141005.800000  6763.699639   978.299933
    5977.9940  140765.800000  6758.699680   978.300415
    5978.5150  141077.800000  6777.697966   979.299764
    5979.0370  141199.800000  6790.699182   983.299927
    5979.4830  139978.800000  6736.698597   973.299905
    5980.0050  140118.800000  6747.699515   974.299658
    5980.5260  140234.800000  6757.697061   976.299535
    5980.9730  140298.800000  6761.700651   977.300045
    5981.4950  140096.800000  6759.700689   978.300508
    5982.0160  140059.800000  6764.697020   978.299395
    5982.4630  140299.800000  6777.698307   980.300189
    5982.9860  140313.800000  6787.701304   981.300391
    5983.5070  140366.800000  6792.703330   981.300051
    5984.0300  140422.800000  6799.702570   983.299891
    5984.4770  140450.800000  6801.697746   982.299772
    5984.9990  140975.800000  6829.703385   985.300355
    5985.5210  140985.800000  6827.702109   988.300158
    5985.9700  140431.800000  6805.703167   983.299979
    5986.4920  139077.800000  6741.702495   974.300490
    5987.0150  135326.800000  6564.698583   948.299967
    5987.4630  129469.800000  6278.698095   906.299593
    5987.9860  123755.800000  6005.701506   868.300235
    5988.5090  127223.800000  6173.702508   891.299954
    5989.0320  131805.800000  6387.702306   917.300306
    5989.4800  134414.800000  6506.700819   932.300157
    5990.0030  136470.800000  6593.700162   936.300013
    5990.5260  137726.800000  6636.701067   928.300311
    5990.9750  138056.800000  6629.697616   907.299381
    5991.4990  138380.800000  6606.700130   878.300319
    5992.0210  138412.800000  6532.701244   848.300387
    5992.4710  138624.800000  6440.698538   822.299992
    5992.9950  138612.800000  6216.701338   778.300513
    5993.5180  138633.800000  5846.697221   722.299739
    5993.9670  138722.800000  5441.701008   665.299940
    5994.4920  138507.800000  4757.701349   575.300159
    5995.0160  138608.800000  3881.701455   465.300231
    5995.4650  138402.800000  3377.700911   402.300191
    5995.9890  138619.800000  3660.698344   432.299750
    5996.5140  138537.800000  4606.702059   540.299973
    5996.9630  138627.800000  5302.702752   622.300393
    5997.4880  138480.800000  5783.700414   676.300137
    5998.0120  138079.800000  6025.700745   705.299869
    5998.5380  138073.800000  6158.697589   717.299599
    5998.9870  138523.800000  6239.700298   719.299938
    5999.5130  138343.800000  6258.702476   710.300536
    6000.0370  138102.800000  6231.701038   693.299867
    6000.4870  137930.800000  6176.699764   675.300238
    6001.0130  137934.800000  6095.703079   651.300015
    6001.4620  137279.800000  5982.701243   630.300354
    6001.9880  136107.800000  5829.698121   601.299711
    6002.5130  135644.800000  5699.700926   578.300126
    6002.9640  135931.800000  5623.702694   563.300125
    6003.4900  137176.800000  5584.699380   552.299728
    6004.0160  137875.800000  5544.698688   541.299949
    6004.4660  138127.800000  5511.701312   533.300269
    6004.9930  138149.800000  5467.697545   524.299918
    6005.5180  137901.800000  5399.702382   512.300372
    6005.9700  137960.800000  5322.699433   500.299974
    6006.4960  137938.800000  5192.701638   483.300391
    6007.0220  138022.800000  5044.698495   463.299711
    6007.4730  137680.800000  4907.697851   448.299816
    6008.0000  137628.800000  4762.702246   432.300300
    6008.5260  137682.800000  4589.699203   411.299956
    6008.9780  137772.800000  4416.700621   393.300217
    6009.5040  137564.800000  4180.701598   369.300013
    6010.0320  137549.800000  3955.701806   346.300298
    6010.9360  137666.560000  3610.457622   312.064160
    6011.8390  137590.840000  3359.725766   289.357987
    6012.8180  137298.640000  3212.509500   281.180746
    6013.7980  137286.950000  3142.809864   282.534182
    6014.7780  137175.800000  3093.621202   284.415044
    6015.7580  137263.160000  3044.945367   284.825935
    6016.8150  137395.030000  3014.784065   283.765016
    6017.7960  137253.420000  2988.133659   280.233806
    6018.9290  137492.340000  2979.999720   276.232937
    6019.9860  137541.780000  2994.378584   273.759779
    6021.1200  136971.730000  3012.271828   272.816889
    6022.1770  136259.200000  3013.680093   274.402013
    6023.3880  136674.200000  3003.598265   273.517955
    6024.5220  137166.720000  2962.033780   272.161979
    6025.7330  137307.750000  2899.979758   268.334956
    6026.8690  137400.300000  2846.441345   262.038081
    6028.1570  137847.370000  2810.414717   256.269939
    6029.3690  138041.970000  2783.902637   251.030902
    6030.5820  138227.080000  2763.905844   249.320974
    6031.8720  138451.700000  2757.420189   247.140946
    6033.1610  138110.860000  2743.448473   244.489894
    6034.5280  138728.530000  2758.990914   246.366997
    6035.8190  139037.720000  2774.046996   247.773877
    6037.1870  139282.420000  2784.617916   245.710976
    6038.5550  139289.660000  2792.699385   248.175940
    6040.0000  139301.410000  2806.297511   248.171064
    6041.3700  139095.670000  2818.407389   247.695024
    6042.8160  139652.450000  2861.030390   252.748043
    6044.2640  140094.770000  2909.167978   256.330955
    6045.7120  140282.590000  2952.820715   263.441983
    6047.2370  140545.940000  3011.985243   269.082948
    6048.7630  140867.800000  3082.663087   275.252027
    6050.2890  141319.190000  3143.856059   280.952150
    6051.8160  141319.090000  3188.563121   289.180963
    6053.4220  141373.520000  3259.779209   298.937866
    6054.9510  141705.450000  3342.515300   310.225014
    6056.5570  142205.920000  3429.759520   322.040858
    6058.2410  142604.910000  3503.519166   332.385759
    6059.8490  142594.410000  3552.793895   339.259936
    6061.5350  142973.420000  3596.581241   344.663996
    6063.2220  142971.970000  3614.879772   347.597039
    6064.9100  143327.030000  3642.695546   352.058805
    6066.6760  143476.610000  3666.025207   351.050225
    6068.3650  143895.700000  3688.864664   349.569714
    6070.1330  143759.330000  3698.219849   345.621021
    6071.9020  144072.470000  3718.091269   343.199090
    6073.7490  144603.120000  3751.474213   343.307026
    6075.5210  145135.300000  3785.369146   348.944083
    6077.3690  145492.000000  3815.776193   354.110985
    6079.2200  146255.220000  3852.703762   360.807096
    6081.1490  146767.950000  3874.136379   369.030777
    6083.0020  147111.200000  3888.088946   374.785942
    6084.9340  147827.980000  3908.553280   383.069172
    6086.8660  148508.280000  3922.529453   387.880768
    6088.8000  147613.090000  3895.019142   384.222908
    6090.8130  148119.420000  3903.024792   380.093821
    6092.8270  148206.280000  3902.545713   371.494243
    6094.8430  148819.660000  3927.575197   364.422721
    6096.8590  149481.550000  3957.121923   357.881975
    6098.8780  150043.950000  3980.180823   354.870002
    6100.9750  150834.890000  4011.754974   355.386907
    6103.0750  151652.340000  4038.840575   358.433068
    6105.1750  152378.310000  4062.442161   363.008260
    6107.2770  152922.810000  4078.553064   372.111881
    6109.4590  153563.810000  4099.180932   382.745953
    6111.6430  154219.340000  4120.324304   393.909093
    6113.8270  155027.390000  4148.977055   403.601131
    6116.0130  155651.970000  4173.143353   409.821964
    6118.2800  156194.050000  4195.825676   413.572745
    6120.4700  156777.660000  4218.023373   415.853029
    6122.7400  157594.780000  4249.732565   418.662177
    6125.0110  157989.440000  4274.953373   422.000068
    6127.3630  158601.590000  4307.688005   425.867648
    6129.6390  159302.280000  4337.939776   430.263929
    6131.9950  159942.480000  4375.703254   438.189966
    6134.3520  158959.220000  4368.980520   439.645170
    6136.7900  160058.450000  4431.770036   447.628810
    6139.1510  160945.220000  4486.074569   453.143267
    6141.5940  161580.500000  4531.891810   458.184870
    6144.0380  162423.310000  4587.223559   460.757204
    6146.4840  163033.620000  4635.065994   465.857930
    6148.9320  163911.470000  4701.424110   469.488002
    6151.4620  164786.830000  4775.299523   473.648260
    6153.9940  165728.720000  4860.684321   480.335834
    6156.5280  166351.110000  4932.582453   486.554030
    6159.0640  166292.030000  4975.995542   489.301928
    6161.6030  167030.470000  5035.920103   490.577628
    6164.2220  167961.440000  5097.363418   490.382995
    6166.8440  168894.910000  5163.314340   490.717677
    6169.4700  168904.910000  5193.785911   496.582272
    6172.0960  170172.420000  5262.762918   508.974765
    6174.8060  170442.470000  5308.258527   521.896921
    6177.5170  171593.020000  5381.265181   535.348956
    6180.2310  172666.090000  5446.790923   549.329197
    6182.9480  173549.690000  5517.826077   561.838946
    6185.6670  174096.810000  5572.370371   570.877587
    6188.4690  174332.450000  5619.434907   578.446688
    6191.2730  175353.590000  5682.012309   586.544025
    6194.0810  176230.280000  5745.101329   596.169980
    6196.8910  177304.470000  5817.702499   601.326894
    6199.7030  177427.190000  5852.818427   609.011777
    6202.5990  178285.410000  5910.454270   616.227351
    6205.4980  179121.170000  5967.598017   621.969952
    6208.3990  179140.440000  6000.255665   629.242905
    6211.3040  179720.230000  6051.422473   638.043615
    6214.2100  180672.550000  6120.111264   650.375934
    6217.2020  181628.370000  6189.310409   660.236402
    6220.1960  182408.720000  6251.021457   665.625475
    6223.1930  183761.590000  6333.247963   673.544112
    6226.1930  184750.980000  6403.987635   677.992444
    6229.1960  185627.890000  6469.236391   681.969788
    6232.2840  186226.310000  6524.006327   680.476939
    6235.3750  186878.270000  6583.282244   681.511906
    6238.4690  187961.730000  6656.077708   686.076170
    6241.5650  185358.720000  6601.388295   677.171290
    6244.7480  187867.220000  6734.202804   690.793347
    6247.8520  189522.250000  6828.543714   701.946163
    6251.0410  191082.800000  6924.389172   718.628203
    6254.2330  191797.860000  6987.752718   732.839184
    6257.4290  192508.440000  7044.625579   750.579276
    6260.7100  193942.550000  7137.017566   768.847977
    6263.9130  194137.170000  7184.917025   775.646015
    6267.2020  194511.310000  7237.336923   783.974575
    6270.4940  195733.970000  7326.262107   793.831102
    6273.7900  196746.160000  7417.709894   807.217097
    6277.1720  197560.860000  7506.660467   819.131775
    6280.4750  199028.080000  7614.131437   833.576266
    6283.8650  199969.810000  7705.115086   843.550428
    6287.2580  200794.080000  7792.618234   853.053431
    6290.6550  201340.860000  7868.624682   864.085370
    6294.0560  202340.160000  7972.150187   878.645503
    6297.5440  201827.970000  8015.191680   885.736923
    6300.9540  202039.310000  8082.742897   895.357036
    6304.4500  203156.170000  8191.810974   914.506223
    6307.9500  204723.550000  8317.390239   934.185299
    6311.5380  205942.450000  8429.477262   947.392089
    6315.0470  206597.860000  8513.083356   958.127135
    6318.5600  206736.800000  8576.204817   963.393325
    6322.1610  208085.250000  8688.843544   968.187852
    6325.7660  208572.230000  8761.984392   978.512623
    6329.3750  209818.720000  8871.651069   989.365866
    6333.0730  210807.730000  8975.821712  1002.748255
    6336.6910  211262.270000  9057.510902  1012.660826
    6340.3970  212294.330000  9161.717498  1025.102555
    6344.1090  213224.890000  9261.429685  1039.072440
    6347.8260  214731.980000  9388.660636  1058.571805
    6351.5460  215750.590000  9495.396143  1073.599546
    6355.2710  216449.730000  9595.654373  1089.157353
    6359.0850  217381.370000  9704.428002  1105.244167
    6362.8190  218286.550000  9823.708013  1125.859393
    6366.6450  219092.230000  9930.509468  1146.005918
    6370.4730  219890.450000  10045.818395  1165.681003
    6374.3070  220693.190000  10155.642440  1181.883623
    6378.2300  220854.420000  10227.976414  1191.617647
    6382.0750  221790.200000  10333.829078  1208.879491
    6386.0090  222640.480000  10445.197184  1224.672270
    6389.9480  223347.300000  10546.077176  1236.991175
    6393.8930  223977.620000  10643.465504  1252.841456
    6397.8420  225198.470000  10770.372768  1271.221313
    6401.8820  226313.830000  10899.791541  1291.129820
    6405.8430  226858.720000  10999.726896  1303.565816
    6409.8940  227301.120000  11090.164764  1318.532873
    6413.9500  228174.050000  11202.127492  1336.028911
    6418.0130  228723.480000  11300.599337  1350.052881
    6422.0810  229805.450000  11433.596485  1373.608311
    6426.1530  230469.940000  11542.091015  1386.691150
    6430.3180  231136.940000  11659.104171  1401.304164
    6434.4020  231779.450000  11772.629143  1415.445430
    6438.5790  232183.500000  11875.672826  1428.117306
    6442.7610  233062.060000  12008.236268  1447.318842
    6446.9490  234288.140000  12163.306131  1471.048961
    6451.2300  234346.730000  12263.885077  1488.307801
    6455.4300  235718.860000  12431.975510  1515.093001
    6459.7230  235915.500000  12536.591525  1534.411147
    6463.9340  237101.660000  12693.715066  1556.257646
    6468.2390  237652.330000  12818.350888  1577.633292
    6472.5500  238157.530000  12939.496080  1597.535845
    6476.9550  237426.250000  13001.166041  1607.972468
    6481.2780  238636.480000  13170.340766  1628.934939
    6485.6070  239536.250000  13316.032527  1655.426637
    6490.0310  240144.520000  13454.234763  1676.447395
    6494.4610  240923.310000  13596.952233  1698.999702
    6498.8980  242125.620000  13769.192684  1723.080509
    6503.3410  242853.470000  13915.930421  1742.688886
    6507.7900  243399.810000  14056.197475  1763.827917
    6512.3350  243884.690000  14192.966594  1788.495085
    6516.7970  244101.080000  14309.253155  1809.691524
    6521.3550  243059.000000  14355.055965  1819.417168
    6525.9200  243840.420000  14520.362795  1846.671806
    6530.4920  244671.370000  14680.189961  1869.456904
    6535.0690  245236.840000  14824.532910  1895.770662
    6539.6550  245676.840000  14968.395532  1917.614592
    6544.2470  245958.360000  15094.753805  1938.984250
    6548.9360  246411.370000  15239.646814  1956.887841
    6553.5410  247773.940000  15436.036345  1983.317204
    6558.2440  248720.000000  15619.947225  2009.276618
    6562.9540  249038.590000  15755.363774  2033.765222
    6567.6710  250295.700000  15954.310108  2062.785015
    6572.3950  250763.330000  16096.753182  2088.331843
    6577.2180  251042.470000  16237.723202  2111.408221
    6581.9560  251589.140000  16379.185635  2134.013246
    6586.7920  252206.330000  16549.179480  2163.147901
    6591.5460  252406.030000  16678.692741  2184.812519
    6596.3970  252864.250000  16823.702976  2212.005972
    6601.2570  253335.000000  16987.244239  2239.730897
    6606.1250  254358.270000  17175.291065  2270.980746
    6611.0910  255332.050000  17364.846646  2297.762573
    6615.9730  255132.340000  17480.909345  2316.069090
    6620.9550  255039.170000  17601.500273  2340.910933
    6625.8530  255758.520000  17769.592643  2371.277212
    6630.8500  257174.370000  18001.216471  2407.178554
    6635.8550  257792.750000  18178.343492  2436.603271
    6640.8690  257942.660000  18327.988399  2465.560863
    6645.8910  258619.080000  18513.130656  2498.044549
    6650.9190  258356.020000  18636.808116  2520.062131
    6655.9570  258309.480000  18768.978008  2540.602864
    6661.0960  254565.450000  18626.680229  2529.677878
    6666.1500  255235.950000  18812.873788  2566.277516
    6671.3050  255455.970000  18966.610024  2599.408882
    6676.4690  255730.520000  19123.849744  2628.071307
    6681.6420  255765.560000  19273.579951  2652.257711
    6686.8220  255752.140000  19416.860224  2679.981181
    6692.0110  255264.230000  19515.620667  2699.229076
    6697.3030  253999.860000  19571.916671  2711.003105
    6702.5090  245031.000000  19000.717339  2636.311374
    6707.7240  276417.660000  21605.047820  3002.147851
    6713.0420  266046.810000  20957.870809  2924.510952
    6718.3690  266235.530000  21141.213211  2958.405285
    6723.7050  262000.730000  20962.063206  2940.828340
    6729.0490  261634.470000  21095.449990  2959.784249
    6734.4030  260795.720000  21193.328079  2981.264141
    6739.7660  264441.500000  21671.717183  3052.274513
    6745.1370  262624.780000  21675.645899  3063.816379
    6750.6140  259153.590000  21582.070435  3060.884411
    6756.0030  257143.920000  21552.998064  3062.482704
    6761.4980  266673.780000  22490.457624  3208.610937
    6766.9060  269098.120000  22892.425038  3271.269289
    6772.4200  263590.030000  22595.911424  3237.456464
    6777.9430  270208.440000  23345.906568  3357.174378
    6783.4760  269549.370000  23465.413349  3381.416027
    6789.0180  266871.810000  23413.421604  3378.187864
    6794.5690  266556.780000  23558.961505  3411.493865
    6800.2280  264415.280000  23554.005656  3419.324092
    6805.7990  254694.280000  22844.557929  3325.685851
    6811.4770  279916.810000  25311.642098  3693.577320
    6817.0670  274536.840000  25004.241228  3659.997483
    6822.7650  273831.410000  25127.343233  3681.946767
    6828.4730  272537.500000  25200.963283  3702.425774
    6834.1900  272623.090000  25400.077331  3745.432953
    6839.9180  272497.220000  25586.718601  3783.968824
    6845.6560  272340.870000  25764.884018  3818.033426
    6851.4050  272486.030000  25979.541080  3859.626228
    6857.1630  272201.720000  26143.730467  3898.751638
    6863.0310  272357.910000  26366.441518  3942.409351
    6868.8100  271838.620000  26524.652442  3968.592832
    6874.6980  271396.870000  26691.367928  4007.302071
    6880.4980  271848.620000  26946.606397  4055.542107
    6886.4070  272765.910000  27236.362982  4111.310996
    6892.3270  273207.720000  27490.634554  4169.613664
    6898.2580  273380.030000  27726.423583  4218.446273
    6904.2000  272467.870000  27849.714052  4249.803297
    6910.1520  272405.220000  28055.501288  4292.686399
    6916.1150  272305.090000  28263.835562  4330.106303
    6922.0890  272226.500000  28477.674812  4377.052009
    6928.1750  272111.410000  28691.002676  4424.523451
    6934.1710  272112.840000  28915.877341  4470.529389
    6940.2790  272447.810000  29175.230327  4521.058161
    6946.2960  272522.280000  29404.136809  4577.126375
    6952.4280  271807.280000  29554.537512  4614.715807
    6958.5690  271878.810000  29791.449283  4662.838652
    6964.6200  271679.840000  30003.868225  4707.482736
    6970.7850  271767.370000  30243.807204  4753.662830
    6976.9600  271777.470000  30478.289377  4797.378421
    6983.1470  272199.060000  30763.245112  4849.611685
    6989.3470  271975.160000  30969.744332  4899.380353
    6995.6610  273096.780000  31341.723777  4979.673058
    7001.8820  273280.940000  31604.241943  5028.503125
    7008.1160  272245.620000  31728.257053  5064.855831
    7014.4650  272476.810000  31993.812015  5123.739326
    7020.7220  272919.500000  32283.842727  5178.150157
    7027.0960  273139.750000  32551.406201  5239.093928
    7033.3760  272713.500000  32747.505576  5283.563596
    7039.7740  272703.750000  32990.084319  5335.566374
    7046.1830  272460.560000  33218.198379  5379.098901
    7052.6040  271742.840000  33386.818884  5426.157159
    7059.0390  272046.690000  33666.952087  5488.745406
    7065.4840  271417.030000  33829.577512  5531.856614
    7071.9420  270200.910000  33929.769772  5555.507585
    7078.4130  268157.280000  33919.418722  5561.682520
    7084.8960  268728.190000  34240.611922  5625.390808
    7091.3910  269508.620000  34586.325079  5692.624417
    7097.8990  270181.560000  34935.523521  5769.383202
    7104.5260  271354.030000  35337.274867  5851.677382
    7111.0590  272091.000000  35690.500794  5925.497023

