# XDI/1.0
# Column.1: energy eV
# Column.2: i0
# Column.3: itrans
# Column.4: irefer
# Beamline.name: SSRL 2-3
# Beamline.notes: vert slits = 0.6mm
# Detector.I0: N2 15cm
# Detector.I1: N2 30cm
# Detector.I2: N2 15cm
# Element.edge: K
# Element.symbol: Cr
# Mono.d_spacing: 3.13550
# Mono.name: Si(111)
# Mono.notes: unfocused, detuned 75%, clockwise at E=5990eV
# Sample.formula: K2Cr2O7
# Sample.name: K2Cr2O7
# Sample.prep: powder on tape (6 layers)
# Sample.reference: Cr foil
# Sample.temperature: room temp
# Scan.start_time: 1997-04-17 18:36:45
# ///
#    Note: mono d_spacing is nominal!
#     exafs to K16
#     396  E XMU XMUR I0
#-------------
#   energy   i0   itrans  irefer
    5759.9890  25720.900000  8986.503952  1142.700009
    5769.9800  25666.900000  9157.500077  1170.700426
    5780.0070  25627.900000  9338.499645  1201.700458
    5790.0030  25598.900000  9526.499932  1232.699379
    5799.9650  25559.900000  9716.500445  1265.700238
    5810.0340  25517.900000  9901.500058  1298.700653
    5820.0000  25471.900000  10092.500101  1332.699499
    5830.0020  25430.900000  10285.500346  1366.700130
    5839.9710  25357.900000  10469.499480  1398.699979
    5849.9750  25320.900000  10666.499495  1433.700611
    5860.0160  25276.900000  10865.500035  1469.700495
    5870.0220  25223.900000  11065.499975  1505.700379
    5879.9930  25167.900000  11267.499971  1542.700532
    5890.0000  25128.900000  11475.499429  1580.699196
    5899.9710  25065.900000  11677.500506  1616.699874
    5909.9780  25007.900000  11873.500579  1653.699790
    5920.0210  24942.900000  12078.499999  1692.700212
    5930.0260  24881.900000  12280.499914  1731.700081
    5939.9950  24803.900000  12473.500062  1767.700234
    5949.9990  24753.900000  12681.500175  1806.700498
    5959.9650  24688.900000  12875.499603  1843.699683
    5969.9670  24610.900000  13071.500608  1879.700272
    5970.4870  24593.900000  13072.499446  1881.700228
    5971.0060  24577.900000  13073.499798  1881.699326
    5971.5260  24514.900000  13048.500148  1878.700277
    5971.9720  24387.900000  12986.499368  1871.700372
    5972.4920  24262.900000  12936.499500  1862.699416
    5973.0120  24238.900000  12935.500141  1862.700806
    5973.5320  24357.900000  13005.499835  1874.699411
    5973.9780  24507.900000  13094.500260  1885.700396
    5974.4980  24627.900000  13170.499559  1897.699658
    5975.0190  24643.900000  13187.499923  1901.700347
    5975.4640  24639.900000  13198.499913  1902.700476
    5975.9850  24622.900000  13203.499449  1904.700740
    5976.5060  24630.900000  13220.499961  1907.700619
    5977.0260  24644.900000  13233.499856  1908.700192
    5977.4730  24645.900000  13239.499637  1911.699731
    5977.9940  24608.900000  13229.499757  1909.700009
    5978.5150  24633.900000  13259.499555  1913.699430
    5979.0370  24632.900000  13267.500160  1914.700949
    5979.4830  24626.900000  13274.500528  1916.699970
    5980.0050  24633.900000  13287.499992  1917.700368
    5980.5260  24617.900000  13283.499430  1918.699515
    5980.9730  24631.900000  13303.499898  1920.700860
    5981.4950  24614.900000  13306.500173  1920.699900
    5982.0160  24617.900000  13311.499965  1923.699819
    5982.4630  24626.900000  13327.499623  1927.699921
    5982.9860  24646.900000  13346.499383  1929.699192
    5983.5070  24630.900000  13343.499698  1927.699556
    5984.0300  24636.900000  13354.500165  1928.700421
    5984.4770  24654.900000  13369.499605  1931.699072
    5984.9990  24669.900000  13380.499382  1933.700215
    5985.5210  24611.900000  13349.500465  1928.699547
    5985.9700  24472.900000  13279.499869  1915.700751
    5986.4920  24079.900000  13072.499745  1883.699698
    5987.0150  23174.900000  12587.500483  1811.699394
    5987.4630  21832.900000  11854.499575  1705.699868
    5987.9860  21441.900000  11643.499619  1673.700514
    5988.5090  22610.900000  12275.499814  1759.700090
    5989.0320  23406.900000  12692.499782  1814.700156
    5989.4800  23744.900000  12866.500466  1830.699383
    5990.0030  24037.900000  12996.499493  1831.699183
    5990.5260  24179.900000  13040.500133  1804.699164
    5990.9750  24254.900000  13028.499912  1758.700631
    5991.4990  24285.900000  12955.500345  1696.700419
    5992.0210  24310.900000  12801.499461  1637.699166
    5992.4710  24332.900000  12577.500512  1583.699466
    5992.9950  24354.900000  12073.499917  1496.700414
    5993.5180  24349.900000  11279.500270  1376.699465
    5993.9670  24340.900000  10408.499823  1256.699404
    5994.4920  24393.900000  8938.502781  1064.700034
    5995.0160  24351.900000  7246.502040   854.700533
    5995.4650  24373.900000  6741.502936   789.700032
    5995.9890  24365.900000  7910.497017   922.699758
    5996.5140  24376.900000  9814.499790  1141.699410
    5996.9630  24359.900000  10914.499534  1269.699347
    5997.4880  24348.900000  11644.500098  1354.699927
    5998.0120  24360.900000  12037.500131  1398.699376
    5998.5380  24379.900000  12251.500537  1412.699513
    5998.9870  24350.900000  12323.500014  1407.699779
    5999.5130  24326.900000  12330.499582  1383.699672
    6000.0370  24337.900000  12279.500010  1351.700198
    6000.4870  24319.900000  12173.499844  1315.699476
    6001.0130  24254.900000  11967.500198  1264.699645
    6001.4620  24140.900000  11753.500340  1219.700208
    6001.9880  23986.900000  11482.500124  1169.699816
    6002.5130  23989.900000  11285.499916  1129.699546
    6002.9640  24064.900000  11166.500253  1104.700489
    6003.4900  24225.900000  11084.499698  1083.699563
    6004.0160  24316.900000  11008.499782  1063.700304
    6004.4660  24337.900000  10941.500077  1045.700406
    6004.9930  24343.900000  10834.500191  1025.700204
    6005.5180  24317.900000  10667.499665   999.699750
    6005.9700  24312.900000  10478.500365   975.699698
    6006.4960  24310.900000  10207.499645   940.699727
    6007.0220  24314.900000  9910.500297   903.699696
    6007.4730  24292.900000  9655.500245   873.699946
    6008.0000  24315.900000  9358.500338   838.700220
    6008.5260  24328.900000  9001.500126   798.700094
    6008.9780  24301.900000  8656.500457   760.699813
    6009.5040  24294.900000  8243.503633   718.700508
    6010.0320  24309.900000  7845.496515   676.699939
    6010.9360  24301.664000  7242.256473   613.464933
    6011.8390  24298.951000  6823.518041   577.757632
    6012.8180  24274.768000  6551.299697   564.581493
    6013.7980  24301.107000  6413.581844   565.932144
    6014.7780  24324.975000  6309.381169   573.812036
    6015.7580  24320.367000  6215.686314   572.221656
    6016.8150  24307.285000  6146.507902   565.160284
    6017.7960  24330.730000  6102.833432   560.626798
    6018.9290  24351.701000  6088.670221   550.623891
    6019.9860  24368.197000  6100.018967   547.147905
    6021.1200  24357.219000  6113.878029   546.202919
    6022.1770  24392.768000  6116.253250   544.785955
    6023.3880  24422.842000  6072.132382   543.897125
    6024.5220  24463.441000  6001.520171   540.538615
    6025.7330  24467.566000  5919.425521   537.708011
    6026.8690  24504.219000  5864.834754   529.408098
    6028.1570  24564.396000  5811.757829   520.635071
    6029.3690  24598.100000  5768.189218   510.391707
    6030.5820  24611.330000  5720.132137   504.677789
    6031.8720  24640.086000  5684.587862   498.493180
    6033.1610  24675.367000  5666.549953   492.837122
    6034.5280  24751.174000  5675.024737   493.708964
    6035.8190  24766.508000  5677.007564   495.110780
    6037.1870  24796.367000  5688.503171   495.041912
    6038.5550  24832.752000  5712.509545   495.500670
    6040.0000  24895.664000  5763.025814   498.489702
    6041.3700  24939.102000  5820.056288   500.008057
    6042.8160  24979.064000  5901.591345   509.054108
    6044.2640  25024.553000  6004.639755   519.630375
    6045.7120  25075.568000  6114.194197   529.733614
    6047.2370  25139.109000  6249.264401   545.368133
    6048.7630  25201.176000  6394.841566   559.529884
    6050.2890  25253.768000  6489.934072   573.221183
    6051.8160  25310.887000  6589.533911   586.442074
    6053.4220  25386.531000  6744.644333   607.191384
    6054.9510  25441.701000  6899.263035   628.469110
    6056.5570  25532.398000  7007.395950   646.277149
    6058.2410  25563.621000  7178.032254   668.612430
    6059.8490  25616.369000  7281.184545   683.477571
    6061.5350  25674.643000  7366.847383   694.871635
    6063.2220  25687.443000  7428.019534   701.795150
    6064.9100  25775.770000  7502.707110   708.248614
    6066.6760  25847.621000  7572.896066   709.228560
    6068.3650  25909.000000  7633.598801   706.737760
    6070.1330  26002.904000  7696.819750   705.777127
    6071.9020  26089.332000  7761.537881   701.344898
    6073.7490  26191.289000  7825.775794   701.441956
    6075.5210  26290.770000  7881.521169   709.067840
    6077.3690  26374.777000  7929.778765   723.222135
    6079.2200  26444.313000  7967.542693   735.906008
    6081.1490  26551.371000  8007.818563   750.118852
    6083.0020  26649.957000  8038.612849   764.861534
    6084.9340  26748.068000  8070.910058   779.131257
    6086.8660  26857.705000  8105.718047   787.931395
    6088.8000  26942.867000  8131.037970   788.260695
    6090.8130  27031.557000  8159.859587   780.116479
    6092.8270  27144.771000  8206.203816   767.503247
    6094.8430  27237.512000  8249.050814   753.418929
    6096.8590  27359.779000  8303.416156   743.864053
    6098.8780  27477.572000  8352.284617   735.836824
    6100.9750  27581.891000  8398.662225   732.338408
    6103.0750  27681.736000  8436.553276   735.370993
    6105.1750  27801.105000  8481.961806   748.931143
    6107.2770  27919.002000  8527.869223   769.019873
    6109.4590  28027.426000  8569.295559   789.638156
    6111.6430  28158.373000  8619.229992   814.786431
    6113.8270  28273.848000  8661.676356   833.461539
    6116.0130  28412.848000  8713.629746   847.666870
    6118.2800  28537.375000  8764.089480   856.401159
    6120.4700  28657.426000  8819.062808   861.663554
    6122.7400  28782.004000  8877.556327   864.456175
    6125.0110  28917.107000  8942.546193   869.776808
    6127.3630  29068.738000  9020.053823   880.626495
    6129.6390  29177.895000  9088.068524   892.005841
    6131.9950  29338.576000  9178.605044   906.914806
    6134.3520  29497.783000  9283.634399   921.349448
    6136.7900  29623.518000  9386.191059   935.316385
    6139.1510  29797.775000  9504.246762   945.811232
    6141.5940  29935.561000  9620.816197   956.834446
    6144.0380  30082.873000  9742.892127   968.387469
    6146.4840  30217.711000  9865.484087   978.470353
    6148.9320  30383.074000  10001.585966   986.080462
    6151.4620  30516.963000  10135.191685   993.218790
    6153.9940  30668.377000  10274.314662  1004.887966
    6156.5280  30802.318000  10403.943811  1016.084939
    6159.0640  30985.785000  10553.088342  1027.811260
    6161.6030  31120.777000  10682.743332  1031.067493
    6164.2220  31279.297000  10814.906792  1032.852551
    6166.8440  31455.342000  10957.584070  1038.166136
    6169.4700  31632.912000  11095.760491  1055.006679
    6172.0960  31787.010000  11225.463402  1079.379907
    6174.8060  31942.631000  11358.660727  1109.279286
    6177.5170  32103.781000  11493.375333  1134.708525
    6180.2310  32293.455000  11633.601340  1163.666246
    6182.9480  32444.654000  11756.340168  1187.153807
    6185.6670  32630.381000  11899.588110  1211.169942
    6188.4690  32793.633000  12028.338179  1229.714933
    6191.2730  32974.410000  12166.611116  1244.789459
    6194.0810  33135.715000  12298.389314  1263.392172
    6196.8910  33298.547000  12423.677931  1279.524037
    6199.7030  33498.902000  12565.477368  1299.186322
    6202.5990  33679.781000  12703.785082  1318.375091
    6205.4980  33854.191000  12844.605306  1336.094629
    6208.3990  34050.125000  12990.936262  1359.342196
    6211.3040  34256.582000  13139.775418  1382.119128
    6214.2100  34397.570000  13269.126518  1407.425322
    6217.2020  34596.082000  13412.988636  1427.258596
    6220.1960  34756.117000  13547.358522  1442.622424
    6223.1930  34955.680000  13703.242359  1452.516360
    6226.1930  35143.770000  13850.634753  1461.936698
    6229.1960  35345.387000  14005.537523  1469.887385
    6232.2840  35502.527000  14134.950328  1471.367848
    6235.3750  35622.195000  14257.875185  1475.375301
    6238.4690  35985.387000  14472.309578  1485.912615
    6241.5650  35301.105000  14270.254509  1461.979394
    6244.7480  36116.352000  14674.710334  1502.575487
    6247.8520  36370.121000  14853.676137  1525.700099
    6251.0410  36667.418000  15055.150639  1559.353275
    6254.2330  36859.242000  15221.139036  1594.536642
    6257.4290  37080.590000  15392.636598  1635.247636
    6260.7100  37298.465000  15572.642253  1675.486671
    6263.9130  37487.863000  15746.160019  1700.255489
    6267.2020  37662.789000  15921.187635  1720.554767
    6270.4940  37878.242000  16112.728626  1744.382383
    6273.7900  38091.219000  16310.777459  1770.737423
    6277.1720  38306.727000  16509.337343  1797.622791
    6280.4750  38497.754000  16713.408508  1827.036585
    6283.8650  38707.313000  16923.988419  1852.979805
    6287.2580  38929.391000  17139.077976  1876.452672
    6290.6550  39113.000000  17342.679605  1900.453406
    6294.0560  39324.133000  17556.790562  1930.982231
    6297.5440  39532.793000  17778.414093  1961.042128
    6300.9540  39731.980000  17987.547357  1995.629830
    6304.4500  39969.691000  18227.188298  2028.744932
    6307.9500  40183.930000  18446.343461  2060.391811
    6311.5380  40400.691000  18669.007365  2090.565887
    6315.0470  40616.980000  18893.181802  2116.270001
    6318.5600  40848.797000  19133.866338  2140.503050
    6322.1610  41043.137000  19351.062655  2161.264216
    6325.7660  41288.004000  19599.767379  2184.554020
    6329.3750  41499.398000  19838.984600  2209.375555
    6333.0730  41707.316000  20075.710612  2236.724809
    6336.6910  41944.762000  20330.946069  2264.600044
    6340.3970  42159.730000  20577.694544  2295.006556
    6344.1090  42396.230000  20821.952591  2333.942373
    6347.8260  42597.254000  21063.723409  2367.407066
    6351.5460  42821.801000  21320.000912  2410.399839
    6355.2710  43049.875000  21578.790851  2448.921999
    6359.0850  43237.477000  21823.089100  2485.974020
    6362.8190  43502.602000  22097.899359  2531.554529
    6366.6450  43740.254000  22372.220260  2577.662608
    6370.4730  43938.434000  22625.050617  2621.300915
    6374.3070  44166.137000  22890.392115  2662.470002
    6378.2300  44408.367000  23165.245058  2698.165500
    6382.0750  44611.121000  23421.607125  2733.391040
    6386.0090  44809.406000  23683.480333  2766.145328
    6389.9480  45056.211000  23972.862072  2807.427107
    6393.8930  45269.547000  24235.755792  2846.237808
    6397.8420  45466.406000  24497.160762  2882.578550
    6401.8820  45706.793000  24789.074957  2921.449888
    6405.8430  45942.703000  25072.497622  2959.846868
    6409.8940  46186.141000  25373.432822  3001.774683
    6413.9500  46408.105000  25666.881947  3040.234105
    6418.0130  46630.594000  25954.835966  3081.217926
    6422.0810  46834.609000  26245.302960  3126.734090
    6426.1530  46966.148000  26497.280018  3165.775619
    6430.3180  47177.219000  26799.767920  3203.350290
    6434.4020  47407.809000  27112.765319  3239.450323
    6438.5790  47656.930000  27448.275838  3282.083240
    6442.7610  47874.574000  27775.292021  3326.241039
    6446.9490  48119.746000  28110.821603  3374.930099
    6451.2300  48299.441000  28432.861948  3425.147673
    6455.4300  48466.664000  28721.412405  3474.893814
    6459.7230  48729.414000  29086.473308  3531.169896
    6463.9340  48994.688000  29462.043801  3588.975494
    6468.2390  49190.488000  29797.123782  3640.306464
    6472.5500  49384.816000  30130.715758  3690.168454
    6476.9550  49659.668000  30507.818487  3745.559461
    6481.2780  49871.047000  30874.432491  3803.479912
    6485.6070  50097.949000  31250.556035  3862.930797
    6490.0310  50298.379000  31609.188383  3918.907241
    6494.4610  50523.336000  31986.333343  3977.413480
    6498.8980  50764.820000  32376.987076  4029.450019
    6503.3410  50914.828000  32711.153240  4079.017283
    6507.7900  51171.359000  33124.827641  4137.108364
    6512.3350  51385.422000  33519.012446  4204.733076
    6516.7970  51603.008000  33899.710189  4264.886060
    6521.3550  51835.117000  34315.915453  4329.565774
    6525.9200  52057.754000  34712.632028  4390.774592
    6530.4920  52277.918000  35116.860243  4456.516308
    6535.0690  52474.609000  35519.598498  4519.781331
    6539.6550  52683.824000  35923.847957  4580.578790
    6544.2470  52875.566000  36316.603805  4638.903584
    6548.9360  53046.832000  36710.875490  4697.761159
    6553.5410  53181.625000  37066.657356  4749.146140
    6558.2440  53437.945000  37525.945515  4814.058899
    6562.9540  53632.789000  37938.746165  4883.498731
    6567.6710  53829.160000  38346.057821  4950.471021
    6572.3950  54021.059000  38754.878786  5019.968466
    6577.2180  54245.480000  39183.211264  5092.996552
    6581.9560  54391.430000  39586.050840  5157.555901
    6586.7920  54644.902000  40046.405763  5231.640635
    6591.5460  54891.906000  40508.268183  5306.253899
    6596.3970  55038.430000  40914.640953  5377.399906
    6601.2570  55221.484000  41334.528030  5444.071293
    6606.1250  55472.063000  41830.921910  5525.273921
    6611.0910  55681.168000  42286.825888  5599.008860
    6615.9730  55897.797000  42753.239476  5679.265834
    6620.9550  56081.953000  43201.169531  5750.055847
    6625.8530  56240.637000  43625.601740  5822.374533
    6630.8500  56520.844000  44146.550405  5903.218971
    6635.8550  56659.578000  44584.008746  5976.596426
    6640.8690  56851.836000  45051.974636  6056.504480
    6645.8910  57091.625000  45548.451768  6140.938824
    6650.9190  57217.934000  45990.441468  6216.901184
    6655.9570  57422.773000  46480.941428  6302.392775
    6661.0960  57638.137000  46979.946916  6384.408520
    6666.1500  57809.027000  47446.470558  6464.962036
    6671.3050  57928.441000  47886.502175  6545.041061
    6676.4690  58115.383000  48380.038282  6625.648782
    6681.6420  58266.848000  48863.089068  6710.787369
    6686.8220  58426.844000  49346.652993  6794.448908
    6692.0110  58385.363000  49673.725178  6855.643110
    6697.3030  58250.406000  49917.306305  6906.367156
    6702.5090  55885.977000  48227.398348  6689.621463
    6707.7240  60528.074000  52627.999630  7316.399171
    6713.0420  60243.699000  52773.115557  7349.710216
    6718.3690  60102.848000  53041.738798  7403.553799
    6723.7050  60135.523000  53459.872825  7481.919164
    6729.0490  60182.723000  53906.519052  7559.820283
    6734.4030  60160.449000  54300.674199  7632.242006
    6739.7660  60289.703000  54826.340049  7731.197266
    6745.1370  60657.480000  55561.515724  7856.685288
    6750.6140  59782.785000  55159.202962  7820.696392
    6756.0030  57970.617000  53904.402237  7660.238727
    6761.4980  60592.973000  56775.109080  8091.312937
    6766.9060  61465.855000  58020.327738  8291.910719
    6772.4200  59994.262000  57049.055146  8173.044754
    6777.9430  61858.195000  59270.292927  8509.695990
    6783.4760  61857.656000  59705.042721  8594.886939
    6789.0180  61832.641000  60112.301025  8682.604112
    6794.5690  61873.152000  60601.070248  8775.849324
    6800.2280  61468.191000  60652.351816  8809.620927
    6805.7990  59023.754000  58639.145004  8539.927148
    6811.4770  64331.844000  64406.444998  9406.751778
    6817.0670  63529.461000  64063.257975  9381.118520
    6822.7650  63401.602000  64413.577991  9459.007378
    6828.4730  63456.270000  64963.413828  9561.429520
    6834.1900  63454.461000  65450.753770  9659.375605
    6839.9180  63626.184000  66103.608952  9784.850710
    6845.6560  63694.426000  66673.976864  9894.853018
    6851.4050  63794.199000  67271.851929  10009.392493
    6857.1630  63874.496000  67854.234094  10120.456667
    6863.0310  63954.320000  68450.125044  10229.046594
    6868.8100  64039.668000  69044.531042  10350.167197
    6874.6980  64207.543000  69750.453049  10476.817048
    6880.4980  64300.941000  70374.874676  10600.999675
    6886.4070  64364.871000  70978.812919  10717.709030
    6892.3270  64417.320000  71565.258594  10832.942695
    6898.2580  64461.301000  72155.221975  10948.710199
    6904.2000  64602.809000  72853.690687  11091.013578
    6910.1520  64653.836000  73454.666847  11204.835636
    6916.1150  64745.391000  74107.157241  11340.179381
    6922.0890  64795.477000  74725.156427  11475.069373
    6928.1750  64840.082000  75367.666857  11605.479549
    6934.1710  64940.219000  76036.686355  11746.413254
    6940.2790  65048.875000  76736.218776  11888.883578
    6946.2960  65092.063000  77373.258359  12020.881009
    6952.4280  65194.777000  78084.811146  12157.406328
    6958.5690  65323.012000  78825.872839  12303.469287
    6964.6200  65376.777000  79484.441942  12438.049764
    6970.7850  65417.066000  80138.530825  12575.164186
    6976.9600  65533.883000  80879.120992  12720.815997
    6983.1470  65586.227000  81562.224492  12857.974720
    6989.3470  65673.094000  82276.844513  12996.677053
    6995.6610  65667.484000  82884.965339  13133.913302
    7001.8820  65790.406000  83638.598847  13285.671481
    7008.1160  65787.852000  84246.750708  13423.957735
    7014.4650  65889.820000  85002.405246  13575.769552
    7020.7220  65949.320000  85708.574085  13716.121163
    7027.0960  65914.344000  86275.251230  13832.996390
    7033.3760  65987.891000  86990.433731  13990.396857
    7039.7740  66094.969000  87790.134588  14163.328611
    7046.1830  66113.570000  88460.340426  14303.786906
    7052.6040  66186.695000  89190.065572  14460.787284
    7059.0390  66243.344000  89909.291683  14618.301804
    7065.4840  66256.523000  90542.035216  14761.349144
    7071.9420  66249.227000  91184.278456  14900.928059
    7078.4130  66284.461000  91893.040337  15056.040844
    7084.8960  66342.219000  92645.314727  15219.665612
    7091.3910  66356.500000  93319.092389  15371.831656
    7097.8990  66286.305000  93882.388693  15497.532455
    7104.5260  66375.641000  94698.185241  15678.742857
    7111.0590  66374.500000  95354.502012  15824.502763

