# XDI/1.0
# Column.1: energy eV
# Column.2: i0
# Column.3: itrans
# Column.4: irefer
# Beamline.name: SSRL 2-3
# Beamline.notes: vert slits = 0.6mm
# Detector.I0: N2 15cm
# Detector.I1: N2 30cm
# Detector.I2: N2 15cm
# Element.edge: K
# Element.symbol: Cr
# Mono.d_spacing: 3.13550
# Mono.name: Si(111)
# Mono.notes: unfocused, detuned 75%, clockwise at E=5990eV
# Sample.formula: K2CrO4
# Sample.name: K2CrO4
# Sample.prep: powder on tape (5 layers)
# Sample.reference: Cr foil
# Sample.temperature: room temperature
# Scan.start_time: 1997-04-17 22:36:29
# ///
#    Note: mono d_spacing is nominal!
#     exafs to K16
#     396  E XMU XMUR I0
#-------------
#   energy   i0   itrans  irefer
    5759.9890  25333.900000  7326.496393   936.699661
    5769.9800  25311.900000  7478.503020   960.700706
    5780.0070  25296.900000  7638.497019   989.699278
    5790.0030  25266.900000  7796.502524  1014.700240
    5799.9650  25231.900000  7955.496449  1041.699034
    5810.0340  25212.900000  8124.496591  1069.699500
    5820.0000  25164.900000  8287.498433  1097.700093
    5830.0020  25123.900000  8447.500378  1125.700585
    5839.9710  25091.900000  8617.500564  1156.699956
    5849.9750  25033.900000  8784.500892  1185.700698
    5860.0160  24999.900000  8953.502754  1213.700340
    5870.0220  24966.900000  9132.504273  1247.700114
    5879.9930  24928.900000  9310.499790  1278.699791
    5890.0000  24886.900000  9484.499748  1308.699454
    5899.9710  24851.900000  9673.500196  1340.700460
    5909.9780  24815.900000  9851.500482  1374.700345
    5920.0210  24762.900000  10029.500151  1407.699435
    5930.0260  24719.900000  10209.500285  1442.700475
    5939.9950  24668.900000  10385.500399  1474.700091
    5949.9990  24632.900000  10573.499756  1508.699238
    5959.9650  24573.900000  10747.500373  1543.700111
    5969.9670  24502.900000  10916.499692  1574.699370
    5970.4870  24474.900000  10913.500520  1572.699552
    5971.0060  24439.900000  10906.500009  1572.700087
    5971.5260  24322.900000  10862.500031  1567.699869
    5971.9720  24177.900000  10805.500314  1558.700237
    5972.4920  24111.900000  10793.499930  1557.699564
    5973.0120  24231.900000  10853.500416  1565.699434
    5973.5320  24410.900000  10945.500448  1580.699474
    5973.9780  24477.900000  10983.500252  1587.699590
    5974.4980  24493.900000  11003.500032  1587.699966
    5975.0190  24513.900000  11024.500383  1592.700660
    5975.4640  24528.900000  11035.499615  1596.700503
    5975.9850  24514.900000  11038.500374  1595.699497
    5976.5060  24509.900000  11041.500181  1596.699869
    5977.0260  24519.900000  11060.500329  1599.700194
    5977.4730  24530.900000  11072.499895  1599.700697
    5977.9940  24506.900000  11070.499975  1601.700553
    5978.5150  24510.900000  11083.500007  1603.700091
    5979.0370  24527.900000  11099.499810  1605.700396
    5979.4830  24530.900000  11107.499906  1607.699938
    5980.0050  24517.900000  11111.499500  1606.700284
    5980.5260  24518.900000  11119.500277  1608.699918
    5980.9730  24528.900000  11128.500322  1610.699271
    5981.4950  24535.900000  11141.499731  1612.700094
    5982.0160  24536.900000  11149.499477  1611.700136
    5982.4630  24529.900000  11152.499929  1614.699194
    5982.9860  24547.900000  11170.500402  1615.700180
    5983.5070  24583.900000  11197.500202  1618.700322
    5984.0300  24573.900000  11201.500069  1617.700512
    5984.4770  24562.900000  11195.499582  1619.699883
    5984.9990  24535.900000  11192.500448  1617.699294
    5985.5210  24390.900000  11124.500319  1606.700845
    5985.9700  24082.900000  10986.499986  1587.699709
    5986.4920  23339.900000  10656.500082  1539.700693
    5987.0150  21837.900000  9974.499563  1440.699547
    5987.4630  21238.900000  9702.500210  1399.699549
    5987.9860  22267.900000  10172.499783  1463.699273
    5988.5090  23179.900000  10586.500205  1518.699876
    5989.0320  23658.900000  10792.500184  1540.699394
    5989.4800  23902.900000  10897.499840  1544.699496
    5990.0030  24068.900000  10952.500110  1526.700317
    5990.5260  24158.900000  10960.500453  1484.700313
    5990.9750  24202.900000  10941.499580  1443.699420
    5991.4990  24245.900000  10881.500341  1398.699856
    5992.0210  24240.900000  10736.500406  1355.700357
    5992.4710  24257.900000  10530.500307  1309.699652
    5992.9950  24281.900000  10110.500294  1240.699728
    5993.5180  24306.900000  9279.499950  1123.699830
    5993.9670  24305.900000  8050.499339   966.700182
    5994.4920  24302.900000  6381.496843   757.699572
    5995.0160  24317.900000  5965.498988   704.699861
    5995.4650  24317.900000  7042.503408   823.700492
    5995.9890  24312.900000  8701.496947  1014.700072
    5996.5140  24332.900000  9793.500429  1141.699503
    5996.9630  24330.900000  10231.499496  1191.700344
    5997.4880  24345.900000  10498.499661  1222.699791
    5998.0120  24323.900000  10620.500110  1229.699839
    5998.5380  24332.900000  10664.499740  1221.700138
    5998.9870  24329.900000  10649.500042  1202.699901
    5999.5130  24331.900000  10589.500026  1172.700192
    6000.0370  24299.900000  10464.499567  1133.699904
    6000.4870  24254.900000  10302.499738  1094.700225
    6001.0130  24162.900000  10091.500137  1050.699885
    6001.4620  24037.900000  9906.500437  1014.700151
    6001.9880  23941.900000  9754.500440   981.700273
    6002.5130  24020.900000  9733.500399   965.699649
    6002.9640  24159.900000  9796.499559   960.700219
    6003.4900  24289.900000  9894.499791   958.700101
    6004.0160  24306.900000  9931.500364   951.699982
    6004.4660  24310.900000  9935.500075   943.700160
    6004.9930  24325.900000  9909.500331   931.700308
    6005.5180  24310.900000  9823.500345   915.699989
    6005.9700  24291.900000  9703.500158   895.700363
    6006.4960  24291.900000  9543.499685   874.699624
    6007.0220  24303.900000  9326.500194   845.700358
    6007.4730  24307.900000  9067.500075   817.700293
    6008.0000  24287.900000  8656.498270   772.699759
    6008.5260  24282.900000  8150.501010   719.700158
    6008.9780  24296.900000  7726.498389   678.699895
    6009.5040  24294.900000  7288.497728   634.699546
    6010.0320  24281.900000  6937.498181   598.699915
    6010.9360  24293.664000  6544.255066   559.464935
    6011.8390  24289.951000  6370.523993   548.758253
    6012.8180  24302.768000  6316.297850   555.581066
    6013.7980  24281.107000  6331.584737   570.932413
    6014.7780  24283.975000  6382.377442   587.811869
    6015.7580  24316.367000  6389.689417   594.221973
    6016.8150  24323.285000  6313.505834   587.160027
    6017.7960  24326.730000  6175.832837   570.627153
    6018.9290  24324.701000  6043.675396   549.624114
    6019.9860  24337.197000  5994.023687   540.148013
    6021.1200  24379.219000  5934.881663   531.203065
    6022.1770  24409.768000  5842.252240   522.786239
    6023.3880  24426.842000  5747.130057   519.896570
    6024.5220  24435.441000  5724.525011   520.539023
    6025.7330  24476.566000  5747.426389   522.708240
    6026.8690  24520.219000  5764.837941   521.408249
    6028.1570  24539.396000  5761.759093   515.634976
    6029.3690  24563.100000  5743.187196   509.391867
    6030.5820  24612.330000  5739.135200   508.678312
    6031.8720  24654.086000  5740.588019   505.492866
    6033.1610  24696.367000  5739.551939   503.837314
    6034.5280  24714.174000  5723.027366   503.709244
    6035.8190  24751.508000  5682.012120   500.111311
    6037.1870  24805.367000  5612.504423   492.042119
    6038.5550  24862.752000  5550.509803   483.500843
    6040.0000  24896.664000  5509.025893   479.490028
    6041.3700  24933.102000  5523.055933   478.008061
    6042.8160  24990.064000  5616.587684   487.053798
    6044.2640  25052.553000  5764.640188   502.630354
    6045.7120  25123.568000  5950.197247   520.734153
    6047.2370  25171.109000  6162.261696   540.367870
    6048.7630  25226.176000  6334.843982   558.530074
    6050.2890  25279.768000  6438.930095   572.220651
    6051.8160  25366.887000  6560.531770   588.441750
    6053.4220  25423.531000  6696.641704   608.190674
    6054.9510  25485.701000  6798.258999   624.468463
    6056.5570  25537.398000  6884.393003   639.276613
    6058.2410  25604.621000  6996.036980   654.612935
    6059.8490  25674.369000  7110.184402   669.478103
    6061.5350  25720.643000  7221.848168   683.872282
    6063.2220  25762.443000  7320.017610   692.794912
    6064.9100  25803.770000  7413.707157   699.248288
    6066.6760  25905.621000  7517.900966   704.229467
    6068.3650  25981.000000  7588.602887   703.737756
    6070.1330  26084.904000  7647.813242   698.776560
    6071.9020  26186.332000  7683.541666   694.344944
    6073.7490  26270.289000  7706.773402   695.441492
    6075.5210  26350.770000  7721.522013   700.068212
    6077.3690  26448.777000  7743.779834   711.222413
    6079.2200  26561.313000  7761.547688   722.906606
    6081.1490  26656.371000  7785.820416   737.119087
    6083.0020  26753.957000  7816.605552   750.860338
    6084.9340  26831.068000  7850.910166   762.131222
    6086.8660  26917.705000  7896.718146   769.931483
    6088.8000  27016.867000  7959.031922   769.259723
    6090.8130  27127.557000  8023.863786   764.117332
    6092.8270  27246.771000  8089.201456   753.503225
    6094.8430  27361.512000  8147.053714   741.418789
    6096.8590  27458.779000  8189.410643   728.864041
    6098.8780  27557.572000  8222.286584   722.836910
    6100.9750  27679.891000  8259.666347   720.339387
    6103.0750  27805.736000  8291.553370   723.370551
    6105.1750  27921.105000  8317.958520   736.930903
    6107.2770  28049.002000  8351.874895   757.020498
    6109.4590  28182.426000  8384.297341   777.638584
    6111.6430  28300.373000  8424.229220   799.786057
    6113.8270  28430.848000  8462.670222   816.460906
    6116.0130  28548.848000  8493.630970   824.667161
    6118.2800  28674.375000  8521.095111   831.400930
    6120.4700  28806.426000  8552.071098   834.664432
    6122.7400  28940.004000  8598.552365   836.456184
    6125.0110  29084.107000  8663.552638   841.777016
    6127.3630  29215.738000  8741.051896   850.626227
    6129.6390  29363.895000  8836.075750   865.006600
    6131.9950  29503.576000  8948.603408   882.913960
    6134.3520  29647.783000  9066.636435   900.350047
    6136.7900  29788.518000  9203.188658   917.316258
    6139.1510  29934.775000  9334.244559   929.810802
    6141.5940  30097.561000  9473.809897   940.833719
    6144.0380  30222.873000  9596.889368   951.387362
    6146.4840  30358.711000  9723.479177   960.469064
    6148.9320  30550.074000  9859.585290   970.079849
    6151.4620  30688.963000  9987.198057   976.219401
    6153.9940  30834.377000  10113.318352   988.888399
    6156.5280  30988.318000  10239.945474   998.085130
    6159.0640  31134.785000  10364.087267  1004.811220
    6161.6030  31300.777000  10495.744838  1009.066778
    6164.2220  31470.297000  10626.906655  1009.852367
    6166.8440  31644.342000  10761.579793  1017.166037
    6169.4700  31786.912000  10885.761302  1033.006655
    6172.0960  31960.010000  11025.463197  1061.379454
    6174.8060  32119.631000  11161.667918  1089.279426
    6177.5170  32291.781000  11305.380238  1115.708623
    6180.2310  32419.455000  11423.603594  1142.666659
    6182.9480  32620.654000  11560.344294  1168.153908
    6185.6670  32809.379000  11693.585220  1188.170132
    6188.4690  32979.633000  11824.340831  1205.714321
    6191.2730  33155.410000  11947.605729  1220.788426
    6194.0810  33335.715000  12081.391119  1236.391856
    6196.8910  33520.547000  12209.674070  1252.523848
    6199.7030  33701.902000  12338.473099  1271.185939
    6202.5990  33907.781000  12475.784383  1288.374719
    6205.4980  34049.191000  12586.605251  1305.094136
    6208.3990  34265.125000  12721.936324  1325.342310
    6211.3040  34454.582000  12848.775217  1348.119277
    6214.2100  34619.570000  12974.126813  1367.424617
    6217.2020  34823.082000  13110.987810  1384.258535
    6220.1960  35013.117000  13245.359474  1394.623188
    6223.1930  35197.680000  13379.241598  1404.515455
    6226.1930  35402.770000  13520.635388  1412.936363
    6229.1960  35613.387000  13661.537552  1419.888584
    6232.2840  35812.527000  13804.950344  1425.368317
    6235.3750  35791.195000  13853.875506  1421.375427
    6238.4690  36305.387000  14130.309956  1441.913618
    6241.5650  35482.105000  13876.254707  1412.980192
    6244.7480  36409.352000  14311.709734  1455.575077
    6247.8520  36761.121000  14531.675617  1484.700090
    6251.0410  36980.418000  14700.150463  1513.354529
    6254.2330  37203.242000  14875.139180  1549.535654
    6257.4290  37416.590000  15050.636595  1591.247483
    6260.7100  37633.465000  15237.643025  1628.486215
    6263.9130  37851.863000  15422.159431  1657.256293
    6267.2020  38075.789000  15620.188635  1685.555564
    6270.4940  38278.242000  15809.727905  1707.382406
    6273.7900  38492.219000  16007.776205  1731.736421
    6277.1720  38706.727000  16212.337220  1761.622940
    6280.4750  38936.754000  16411.408569  1788.037657
    6283.8650  39113.313000  16605.988694  1810.980470
    6287.2580  39356.391000  16831.078294  1838.452299
    6290.6550  39579.000000  17049.680671  1863.453478
    6294.0560  39801.133000  17266.791309  1890.981638
    6297.5440  40027.793000  17488.414582  1926.042997
    6300.9540  40233.980000  17706.546186  1955.630039
    6304.4500  40465.691000  17939.189537  1990.746471
    6307.9500  40691.930000  18161.344244  2018.392480
    6311.5380  40900.691000  18380.008103  2045.566069
    6315.0470  41133.980000  18621.181887  2072.270247
    6318.5600  41382.797000  18861.866966  2097.502315
    6322.1610  41591.137000  19089.063734  2118.265496
    6325.7660  41846.004000  19334.767661  2144.554650
    6329.3750  42095.398000  19575.984288  2173.375575
    6333.0730  42306.316000  19806.710399  2196.723186
    6336.6910  42549.762000  20064.946986  2227.601312
    6340.3970  42775.730000  20294.694266  2259.007338
    6344.1090  43023.230000  20540.953035  2293.943990
    6347.8260  43258.254000  20787.722731  2329.406605
    6351.5460  43511.801000  21037.999208  2369.398887
    6355.2710  43729.875000  21274.790070  2403.922569
    6359.0850  43962.477000  21525.090929  2443.973686
    6362.8190  44190.602000  21769.899135  2488.555053
    6366.6450  44433.254000  22029.219981  2532.664101
    6370.4730  44640.434000  22271.050255  2573.301334
    6374.3070  44936.137000  22554.394026  2613.470167
    6378.2300  45177.367000  22817.243212  2648.163898
    6382.0750  45399.121000  23072.606398  2683.390330
    6386.0090  45615.406000  23334.480357  2718.146218
    6389.9480  45873.211000  23616.861053  2758.427879
    6393.8930  46101.547000  23886.757047  2798.238765
    6397.8420  46347.406000  24168.159047  2836.579784
    6401.8820  46595.793000  24457.072994  2877.449922
    6405.8430  46841.703000  24748.497891  2913.848733
    6409.8940  47083.141000  25035.434376  2954.777040
    6413.9500  47316.105000  25333.879835  2995.231799
    6418.0130  47572.594000  25640.836059  3040.218048
    6422.0810  47820.609000  25952.304140  3088.734306
    6426.1530  48070.148000  26272.279206  3132.775525
    6430.3180  48247.219000  26545.766705  3170.350941
    6434.4020  48477.809000  26857.766838  3207.452623
    6438.5790  48756.930000  27216.275034  3252.081137
    6442.7610  48980.574000  27527.292595  3296.241798
    6446.9490  49189.746000  27852.821926  3345.932025
    6451.2300  49443.441000  28203.861755  3405.146318
    6455.4300  49652.664000  28539.413012  3457.895077
    6459.7230  49908.414000  28901.474246  3513.169445
    6463.9340  50174.688000  29268.044119  3570.973603
    6468.2390  50398.488000  29624.125340  3625.307363
    6472.5500  50628.816000  29986.716503  3676.170188
    6476.9550  50874.668000  30365.819520  3730.560976
    6481.2780  51104.047000  30717.431407  3787.481520
    6485.6070  51346.949000  31087.556259  3842.932007
    6490.0310  51602.379000  31492.186772  3904.908986
    6494.4610  51846.336000  31881.333022  3958.414898
    6498.8980  52074.820000  32259.988964  4012.452822
    6503.3410  52308.828000  32644.152795  4069.018242
    6507.7900  52588.359000  33048.827313  4131.109783
    6512.3350  52796.422000  33424.010644  4193.734070
    6516.7970  53018.008000  33810.710447  4251.885916
    6521.3550  53283.117000  34232.915638  4321.565093
    6525.9200  53476.754000  34599.632299  4384.773867
    6530.4920  53768.918000  35025.857270  4452.512608
    6535.0690  53960.609000  35407.597559  4511.782993
    6539.6550  54203.824000  35820.847613  4576.580298
    6544.2470  54395.566000  36208.606645  4632.903805
    6548.9360  54625.832000  36621.876646  4691.760027
    6553.5410  54855.625000  37028.657278  4753.143240
    6558.2440  55079.945000  37440.944387  4817.055625
    6562.9540  55281.789000  37846.747370  4881.497519
    6567.6710  55523.160000  38285.059588  4948.471450
    6572.3950  55749.059000  38703.879143  5014.966951
    6577.2180  55994.480000  39155.210899  5089.998391
    6581.9560  56227.430000  39590.049686  5161.554615
    6586.7920  56471.902000  40060.407592  5237.642564
    6591.5460  56687.906000  40495.270516  5310.256769
    6596.3970  56941.430000  40967.640365  5383.396505
    6601.2570  57180.484000  41418.525283  5461.072786
    6606.1250  57425.063000  41904.920134  5537.273578
    6611.0910  57633.168000  42358.823026  5614.007059
    6615.9730  57873.797000  42827.239027  5688.265258
    6620.9550  58119.953000  43327.166063  5762.058734
    6625.8530  58317.637000  43773.603200  5838.371873
    6630.8500  58580.844000  44291.551551  5919.221571
    6635.8550  58771.578000  44772.010149  6003.599288
    6640.8690  58923.836000  45210.971727  6079.502061
    6645.8910  59149.625000  45709.454146  6168.934611
    6650.9190  59364.934000  46222.440966  6254.901619
    6655.9570  59553.773000  46701.942183  6337.394693
    6661.0960  59816.137000  47258.950948  6429.411912
    6666.1500  60041.027000  47772.469031  6518.964289
    6671.3050  60218.441000  48267.498937  6601.041465
    6676.4690  60396.383000  48771.041217  6684.649103
    6681.6420  60607.848000  49294.089708  6770.786061
    6686.8220  60754.844000  49774.649870  6852.453859
    6692.0110  60808.363000  50183.722888  6926.646107
    6697.3030  60653.406000  50420.306067  6977.369562
    6702.5090  57894.977000  48399.395685  6713.620195
    6707.7240  63102.074000  53228.998768  7399.403120
    6713.0420  62528.699000  53136.115343  7401.715779
    6718.3690  62470.848000  53510.736496  7469.554180
    6723.7050  62525.523000  53929.877689  7547.924625
    6729.0490  62580.723000  54383.521338  7627.820772
    6734.4030  62606.449000  54819.676623  7712.243970
    6739.7660  63288.703000  55833.337968  7875.204445
    6745.1370  63134.480000  56091.515068  7933.684490
    6750.6140  62282.785000  55826.203915  7917.696863
    6756.0030  62544.617000  56416.404382  8029.240768
    6761.4980  62914.973000  57128.108866  8145.309743
    6766.9060  64110.855000  58667.327726  8391.908555
    6772.4200  62700.262000  57777.055099  8289.044692
    6777.9430  64591.195000  59978.292866  8622.695262
    6783.4760  64634.656000  60462.042868  8715.889834
    6789.0180  64617.641000  60891.301013  8798.606213
    6794.5690  64605.152000  61326.070117  8891.849227
    6800.2280  64315.191000  61503.351870  8942.620574
    6805.7990  62018.754000  59751.144962  8711.921310
    6811.4770  66898.844000  64938.444757  9488.758835
    6817.0670  66348.461000  64844.258083  9501.116950
    6822.7650  66323.602000  65310.577856  9593.003319
    6828.4730  66413.273000  65893.413992  9694.430032
    6834.1900  66483.461000  66450.758000  9807.370474
    6839.9180  66642.180000  67108.608974  9937.846392
    6845.6560  66807.430000  67781.976882  10059.850783
    6851.4050  66944.195000  68432.852011  10185.386551
    6857.1630  67087.492000  69098.234344  10314.453647
    6863.0310  67189.320000  69733.125027  10444.050189
    6868.8100  67345.664000  70427.530903  10574.170167
    6874.6980  67514.547000  71158.453210  10705.815792
    6880.4980  67667.945000  71852.874725  10838.001568
    6886.4070  67787.867000  72538.812695  10968.711011
    6892.3270  67950.320000  73258.258087  11106.938242
    6898.2580  68074.305000  73943.219098  11240.715389
    6904.2000  68235.805000  74705.688244  11387.010058
    6910.1520  68296.836000  75325.664027  11518.827844
    6916.1150  68402.391000  76017.158167  11654.181937
    6922.0890  68470.477000  76677.158406  11784.061047
    6928.1750  68588.078000  77403.664895  11926.479898
    6934.1710  68749.219000  78182.690698  12075.423562
    6940.2790  68871.875000  78919.219741  12234.891078
    6946.2960  68977.063000  79630.256630  12373.884080
    6952.4280  69080.773000  80363.809411  12518.417290
    6958.5690  69252.016000  81174.873251  12682.470400
    6964.6200  69338.773000  81894.443587  12828.049553
    6970.7850  69478.070000  82669.527455  12986.171535
    6976.9600  69627.883000  83454.127107  13138.805522
    6983.1470  69735.227000  84194.230623  13284.984321
    6989.3470  69807.094000  84906.846996  13420.679154
    6995.6610  69904.484000  85643.967985  13575.908607
    7001.8820  70067.406000  86460.600236  13741.669989
    7008.1160  70076.852000  87120.753321  13881.959584
    7014.4650  70247.820000  87958.408820  14049.770705
    7020.7220  70340.320000  88720.570766  14199.116954
    7027.0960  70396.344000  89452.247016  14359.000096
    7033.3760  70447.891000  90170.435005  14505.394312
    7039.7740  70570.969000  90988.129774  14673.337274
    7046.1830  70625.570000  91734.346335  14825.799317
    7052.6040  70677.695000  92467.065748  14989.778495
    7059.0390  70790.344000  93294.290155  15157.309748
    7065.4840  70781.523000  93960.031220  15302.351235
    7071.9420  70859.227000  94733.282514  15469.933881
    7078.4130  70963.461000  95544.041696  15643.027816
    7084.8960  71004.219000  96315.310895  15806.674662
    7091.3910  71079.500000  97091.095720  15975.841404
    7097.8990  71149.305000  97875.391705  16151.536047
    7104.5260  71245.641000  98719.188345  16332.750716
    7111.0590  71306.500000  99522.503792  16502.498396

