# XDI/1.0
# Column.1: energy eV
# Column.2: i0
# Column.3: itrans
# Column.4: irefer
# Beamline.name: SSRL 2-3
# Beamline.notes: vert slits = 0.6mm
# Detector.I0: N2 15cm
# Detector.I1: N2 30cm
# Detector.I2: N2 15cm
# Element.edge: K
# Element.symbol: Cr
# Mono.d_spacing: 3.13550
# Mono.name: Si(111)
# Mono.notes: unfocused, detuned 75%, clockwise at E=5990eV
# Sample.formula: K2Cr2O7
# Sample.name: K2Cr2O7
# Sample.prep: powder on tape (6 layers)
# Sample.reference: Cr foil
# Sample.temperature: room temp
# Scan.start_time: 1997-04-17 18:36:45
# ///
#    Note: mono d_spacing is nominal!
#     exafs to K16
#     396  E XMU XMUR I0
#-------------
#   energy   i0   itrans  irefer
    5759.9890  25610.900000  8938.502255  1136.700812
    5769.9800  25572.900000  9113.503339  1165.700504
    5780.0070  25547.900000  9300.499622  1197.700084
    5790.0030  25498.900000  9487.499727  1228.700509
    5799.9650  25445.900000  9666.500290  1260.700262
    5810.0340  25419.900000  9859.499748  1292.700488
    5820.0000  25364.900000  10046.500135  1326.699566
    5830.0020  25336.900000  10243.499724  1361.700561
    5839.9710  25270.900000  10430.500309  1393.700216
    5849.9750  25224.900000  10618.500414  1428.699803
    5860.0160  25176.900000  10819.500496  1463.699460
    5870.0220  25112.900000  11010.499949  1499.700405
    5879.9930  25073.900000  11213.499494  1536.700160
    5890.0000  25019.900000  11415.500310  1574.700520
    5899.9710  24956.900000  11611.499428  1611.700668
    5909.9780  24908.900000  11820.499492  1649.699697
    5920.0210  24853.900000  12022.499852  1685.699956
    5930.0260  24789.900000  12230.499758  1724.699465
    5939.9950  24736.900000  12432.500551  1763.700319
    5949.9990  24679.900000  12640.500029  1803.699705
    5959.9650  24623.900000  12843.499605  1841.699554
    5969.9670  24548.900000  13032.500118  1878.700373
    5970.4870  24539.900000  13038.500588  1879.700704
    5971.0060  24511.900000  13028.500630  1876.700748
    5971.5260  24437.900000  12999.500139  1872.699375
    5971.9720  24338.900000  12958.500647  1869.700006
    5972.4920  24190.900000  12889.500038  1859.699712
    5973.0120  24181.900000  12894.499427  1861.699573
    5973.5320  24308.900000  12971.499939  1872.700747
    5973.9780  24463.900000  13066.499459  1886.700736
    5974.4980  24557.900000  13125.499892  1894.700720
    5975.0190  24568.900000  13149.499742  1896.700344
    5975.4640  24568.900000  13154.500133  1900.699384
    5975.9850  24567.900000  13163.499537  1901.699220
    5976.5060  24558.900000  13167.500548  1902.699589
    5977.0260  24564.900000  13181.499517  1904.699579
    5977.4730  24555.900000  13186.499634  1905.700297
    5977.9940  24554.900000  13195.499533  1907.699044
    5978.5150  24567.900000  13212.499493  1911.700792
    5979.0370  24564.900000  13221.500031  1911.700757
    5979.4830  24554.900000  13219.500195  1912.700326
    5980.0050  24553.900000  13235.499835  1915.699061
    5980.5260  24573.900000  13253.500472  1917.700293
    5980.9730  24573.900000  13259.500364  1918.700826
    5981.4950  24569.900000  13270.499866  1919.699218
    5982.0160  24559.900000  13272.500081  1919.700591
    5982.4630  24585.900000  13299.499566  1922.699922
    5982.9860  24581.900000  13299.499458  1925.699734
    5983.5070  24587.900000  13311.500383  1926.699339
    5984.0300  24581.900000  13307.500182  1924.699400
    5984.4770  24599.900000  13327.500109  1925.700077
    5984.9990  24592.900000  13332.500265  1924.699176
    5985.5210  24527.900000  13301.500457  1922.700763
    5985.9700  24350.900000  13207.499469  1907.699012
    5986.4920  23931.900000  12984.499463  1878.700467
    5987.0150  22876.900000  12413.499724  1791.699423
    5987.4630  21558.900000  11696.499679  1688.699362
    5987.9860  21537.900000  11687.499758  1685.699943
    5988.5090  22729.900000  12327.499991  1774.700255
    5989.0320  23426.900000  12694.500076  1819.700332
    5989.4800  23737.900000  12848.499408  1834.700085
    5990.0030  23985.900000  12956.499546  1829.699156
    5990.5260  24125.900000  12994.499496  1794.700494
    5990.9750  24187.900000  12973.499905  1745.700326
    5991.4990  24212.900000  12888.500104  1686.700829
    5992.0210  24241.900000  12722.499510  1629.700150
    5992.4710  24262.900000  12460.499922  1571.699683
    5992.9950  24284.900000  11919.500519  1476.699837
    5993.5180  24288.900000  11087.500091  1357.700359
    5993.9670  24289.900000  10149.499826  1228.699664
    5994.4920  24299.900000  8603.501186  1030.700054
    5995.0160  24312.900000  7013.501476   832.699933
    5995.4650  24311.900000  6789.497564   802.699339
    5995.9890  24276.900000  8207.499266   963.699535
    5996.5140  24299.900000  10048.499653  1173.700215
    5996.9630  24296.900000  11046.500381  1291.700633
    5997.4880  24299.900000  11712.499854  1368.700343
    5998.0120  24283.900000  12047.500118  1405.699691
    5998.5380  24282.900000  12230.499596  1415.699562
    5998.9870  24291.900000  12306.499795  1409.699500
    5999.5130  24271.900000  12301.499956  1383.700183
    6000.0370  24247.900000  12219.499747  1344.700102
    6000.4870  24233.900000  12103.500150  1309.699445
    6001.0130  24165.900000  11895.499658  1258.699630
    6001.4620  24045.900000  11681.500117  1214.700329
    6001.9880  23887.900000  11407.500237  1164.700596
    6002.5130  23895.900000  11214.500138  1127.700492
    6002.9640  24019.900000  11124.499669  1102.700150
    6003.4900  24161.900000  11035.499595  1082.700423
    6004.0160  24245.900000  10963.499532  1061.700142
    6004.4660  24239.900000  10875.499813  1043.700463
    6004.9930  24254.900000  10775.500218  1023.699533
    6005.5180  24247.900000  10606.499947   999.700061
    6005.9700  24234.900000  10405.500318   972.700109
    6006.4960  24223.900000  10122.499799   936.699876
    6007.0220  24229.900000  9825.499613   900.700043
    6007.4730  24227.900000  9583.499923   872.700250
    6008.0000  24215.900000  9267.499872   835.700187
    6008.5260  24204.900000  8894.499856   792.699628
    6008.9780  24228.900000  8564.503277   758.699979
    6009.5040  24221.900000  8157.503533   715.700270
    6010.0320  24212.900000  7759.497283   675.699755
    6010.9360  24201.664000  7173.254029   615.464748
    6011.8390  24189.951000  6768.518968   580.757670
    6012.8180  24209.768000  6520.298702   568.581389
    6013.7980  24199.107000  6380.584654   570.931941
    6014.7780  24195.975000  6270.382120   574.812313
    6015.7580  24195.367000  6177.688476   573.222213
    6016.8150  24218.285000  6116.505437   569.159781
    6017.7960  24237.730000  6076.832015   562.626945
    6018.9290  24259.701000  6059.671427   555.624028
    6019.9860  24251.197000  6067.022618   548.147963
    6021.1200  24272.219000  6090.879238   547.202932
    6022.1770  24313.768000  6092.251844   545.786052
    6023.3880  24325.842000  6039.131692   544.896856
    6024.5220  24351.441000  5967.523555   541.539119
    6025.7330  24368.566000  5889.422958   535.708035
    6026.8690  24417.219000  5838.836690   531.407878
    6028.1570  24462.396000  5781.759692   522.635019
    6029.3690  24496.100000  5736.188247   513.391751
    6030.5820  24514.330000  5694.135836   506.678218
    6031.8720  24562.086000  5662.588017   500.492850
    6033.1610  24598.367000  5645.552452   498.836974
    6034.5280  24640.174000  5647.026934   497.708955
    6035.8190  24668.508000  5652.011222   499.111107
    6037.1870  24696.367000  5665.505643   498.042008
    6038.5550  24738.752000  5691.511880   500.501302
    6040.0000  24792.664000  5733.027800   503.490116
    6041.3700  24837.102000  5792.051714   504.007860
    6042.8160  24888.064000  5878.592315   513.054260
    6044.2640  24930.553000  5982.640821   523.630016
    6045.7120  24989.568000  6092.195086   536.734059
    6047.2370  25048.109000  6229.264921   550.368258
    6048.7630  25101.176000  6367.842388   564.529690
    6050.2890  25163.768000  6466.934423   578.221181
    6051.8160  25218.887000  6565.529752   591.441914
    6053.4220  25294.531000  6721.640228   612.191098
    6054.9510  25358.701000  6879.258747   635.468921
    6056.5570  25436.398000  7026.390562   654.276745
    6058.2410  25485.621000  7155.035759   672.613378
    6059.8490  25519.369000  7251.183758   685.477730
    6061.5350  25567.643000  7336.850085   697.872126
    6063.2220  25607.443000  7402.020855   706.794763
    6064.9100  25681.770000  7474.703117   713.247640
    6066.6760  25767.621000  7548.898841   713.229311
    6068.3650  25842.000000  7612.602330   712.738330
    6070.1330  25917.904000  7669.818903   709.777317
    6071.9020  26002.332000  7729.539025   705.344619
    6073.7490  26096.289000  7786.777635   705.441889
    6075.5210  26178.770000  7841.520657   713.068191
    6077.3690  26289.777000  7898.778730   726.222495
    6079.2200  26384.313000  7942.544016   739.905820
    6081.1490  26469.371000  7977.820495   755.119136
    6083.0020  26541.957000  8004.611106   768.860880
    6084.9340  26677.068000  8047.909111   782.131276
    6086.8660  26786.705000  8079.715668   790.931181
    6088.8000  26866.867000  8109.034556   790.260072
    6090.8130  26983.557000  8146.860844   783.116882
    6092.8270  27058.771000  8180.204940   771.502940
    6094.8430  27174.512000  8232.053316   757.419116
    6096.8590  27282.779000  8276.413292   744.864242
    6098.8780  27392.572000  8325.281772   737.837168
    6100.9750  27512.891000  8377.668539   732.339305
    6103.0750  27638.736000  8421.553118   737.370549
    6105.1750  27751.105000  8463.955853   750.930375
    6107.2770  27858.002000  8504.872632   771.020166
    6109.4590  27980.426000  8550.298497   793.638028
    6111.6430  28090.373000  8595.225888   814.785753
    6113.8270  28189.848000  8636.677093   834.461154
    6116.0130  28346.848000  8691.624339   848.666353
    6118.2800  28482.375000  8749.088075   858.400483
    6120.4700  28606.426000  8802.065219   862.663466
    6122.7400  28739.004000  8860.553412   865.455972
    6125.0110  28893.107000  8929.550472   871.776718
    6127.3630  29018.738000  8997.059118   880.626898
    6129.6390  29131.895000  9070.075807   893.006537
    6131.9950  29258.576000  9151.599999   909.913924
    6134.3520  29398.783000  9247.639030   923.350182
    6136.7900  29542.518000  9351.189120   935.316330
    6139.1510  29694.775000  9464.245856   945.810643
    6141.5940  29834.561000  9577.815000   958.833811
    6144.0380  29996.873000  9709.891837   969.387493
    6146.4840  30148.711000  9842.484503   978.470314
    6148.9320  30301.074000  9971.581103   986.079950
    6151.4620  30444.963000  10110.197437   993.219653
    6153.9940  30616.377000  10251.315736  1004.887969
    6156.5280  30742.318000  10381.943984  1016.084121
    6159.0640  30910.785000  10523.092754  1023.812242
    6161.6030  31035.777000  10644.748115  1027.067481
    6164.2220  31189.297000  10786.905999  1027.851798
    6166.8440  31365.342000  10921.578655  1034.166228
    6169.4700  31514.912000  11056.769122  1050.007000
    6172.0960  31671.010000  11182.463043  1074.380000
    6174.8060  31840.631000  11318.665517  1102.279357
    6177.5170  32005.781000  11448.383520  1130.709761
    6180.2310  32143.455000  11572.607151  1157.667093
    6182.9480  32323.654000  11711.336264  1179.154061
    6185.6670  32491.381000  11845.592461  1202.170718
    6188.4690  32669.633000  11979.345902  1220.715292
    6191.2730  32837.410000  12107.610408  1232.789163
    6194.0810  32997.715000  12240.388498  1252.391617
    6196.8910  33198.547000  12378.678415  1271.524418
    6199.7030  33342.902000  12503.476381  1288.185599
    6202.5990  33518.781000  12639.785373  1306.375369
    6205.4980  33708.191000  12783.604663  1328.093512
    6208.3990  33868.125000  12917.935655  1347.341924
    6211.3040  34075.582000  13068.774481  1371.118400
    6214.2100  34245.570000  13206.127326  1395.424839
    6217.2020  34427.082000  13347.987469  1414.258863
    6220.1960  34638.117000  13504.359012  1429.622643
    6223.1930  34819.680000  13645.241382  1437.516316
    6226.1930  35011.770000  13791.635575  1445.936619
    6229.1960  35227.387000  13947.538204  1452.887593
    6232.2840  35401.527000  14086.951661  1457.367833
    6235.3750  35501.195000  14200.874652  1460.375447
    6238.4690  35873.387000  14419.310445  1474.913452
    6241.5650  35135.105000  14195.255274  1444.980423
    6244.7480  35976.352000  14610.710180  1484.575442
    6247.8520  36268.121000  14803.676263  1510.700644
    6251.0410  36520.418000  14985.151359  1539.353928
    6254.2330  36728.242000  15154.138999  1576.535465
    6257.4290  36933.590000  15326.636081  1619.247014
    6260.7100  37116.465000  15494.643316  1655.487242
    6263.9130  37336.863000  15676.160562  1687.255295
    6267.2020  37521.789000  15852.187513  1709.555686
    6270.4940  37729.242000  16047.727386  1733.381706
    6273.7900  37920.219000  16224.777558  1755.736721
    6277.1720  38159.727000  16447.337211  1786.623619
    6280.4750  38366.754000  16648.408118  1815.036547
    6283.8650  38571.313000  16849.987478  1838.979712
    6287.2580  38751.391000  17048.077690  1862.451167
    6290.6550  39000.000000  17274.680009  1887.452141
    6294.0560  39211.133000  17492.790272  1915.981093
    6297.5440  39431.793000  17718.413682  1947.042238
    6300.9540  39618.980000  17928.547886  1979.630669
    6304.4500  39800.691000  18136.189717  2010.745148
    6307.9500  40047.930000  18373.343416  2041.391916
    6311.5380  40256.691000  18600.008284  2069.566212
    6315.0470  40480.980000  18831.182401  2096.271172
    6318.5600  40684.797000  19051.866668  2117.501984
    6322.1610  40890.137000  19275.062940  2136.265444
    6325.7660  41141.004000  19526.768902  2156.555533
    6329.3750  41345.398000  19753.984571  2183.375822
    6333.0730  41568.316000  20001.711451  2209.724490
    6336.6910  41792.762000  20244.947710  2238.601335
    6340.3970  42033.730000  20502.693981  2270.007854
    6344.1090  42243.230000  20740.952018  2303.943233
    6347.8260  42467.254000  21000.723402  2344.407922
    6351.5460  42690.801000  21255.000042  2383.400296
    6355.2710  42916.875000  21509.790536  2421.923854
    6359.0850  43164.477000  21779.090656  2467.973492
    6362.8190  43404.602000  22049.900124  2509.554061
    6366.6450  43605.254000  22293.221144  2550.663822
    6370.4730  43813.434000  22549.051042  2595.302247
    6374.3070  44042.137000  22823.393365  2634.470030
    6378.2300  44266.367000  23083.243825  2672.164929
    6382.0750  44441.121000  23332.606187  2709.390737
    6386.0090  44671.406000  23608.480959  2746.144726
    6389.9480  44830.211000  23837.862187  2776.427876
    6393.8930  45079.547000  24134.755543  2820.239866
    6397.8420  45325.406000  24427.159661  2859.579580
    6401.8820  45541.793000  24701.074182  2896.449660
    6405.8430  45766.703000  24982.498457  2933.846961
    6409.8940  45976.141000  25253.435049  2974.777327
    6413.9500  46208.105000  25553.881313  3016.231534
    6418.0130  46418.594000  25830.837025  3059.220092
    6422.0810  46650.609000  26145.303656  3104.732567
    6426.1530  46841.148000  26426.279414  3147.778442
    6430.3180  47109.219000  26754.768372  3190.350273
    6434.4020  47358.809000  27080.766224  3234.449497
    6438.5790  47562.930000  27397.275560  3277.082603
    6442.7610  47776.574000  27708.292474  3318.240709
    6446.9490  48015.746000  28042.821993  3369.932447
    6451.2300  48223.441000  28366.861936  3419.148798
    6455.4300  48425.664000  28693.411189  3473.895272
    6459.7230  48664.414000  29043.472066  3530.168997
    6463.9340  48893.688000  29376.043887  3581.975660
    6468.2390  49135.488000  29746.124172  3637.307985
    6472.5500  49336.816000  30085.718093  3686.168520
    6476.9550  49590.668000  30466.821471  3743.560900
    6481.2780  49772.047000  30801.433196  3795.481276
    6485.6070  50001.949000  31163.554427  3851.929859
    6490.0310  50243.379000  31554.186587  3912.909743
    6494.4610  50448.336000  31919.332576  3964.413255
    6498.8980  50668.820000  32298.989060  4014.452327
    6503.3410  50874.828000  32676.153559  4067.016008
    6507.7900  51058.359000  33038.827893  4123.108927
    6512.3350  51261.422000  33429.012527  4186.734864
    6516.7970  51501.008000  33820.711473  4253.887966
    6521.3550  51720.117000  34220.915316  4316.565298
    6525.9200  51948.754000  34626.633236  4381.776048
    6530.4920  52211.918000  35067.857950  4449.514473
    6535.0690  52372.609000  35432.597354  4506.781334
    6539.6550  52579.824000  35830.847056  4567.578392
    6544.2470  52763.566000  36222.606564  4621.907112
    6548.9360  52949.832000  36617.874637  4686.759939
    6553.5410  53108.625000  36999.657078  4741.144890
    6558.2440  53324.945000  37420.943449  4802.057793
    6562.9540  53523.789000  37836.744579  4868.499162
    6567.6710  53742.160000  38248.058312  4936.466520
    6572.3950  53965.059000  38685.880232  5005.967404
    6577.2180  54195.480000  39132.209887  5085.996151
    6581.9560  54415.430000  39573.050884  5153.552864
    6586.7920  54609.902000  40007.407386  5225.641794
    6591.5460  54812.906000  40438.268518  5299.256762
    6596.3970  54971.430000  40838.640150  5371.400610
    6601.2570  55208.484000  41307.527080  5447.074835
    6606.1250  55399.063000  41739.923975  5520.277221
    6611.0910  55566.168000  42167.822359  5586.005359
    6615.9730  55811.797000  42643.240036  5668.268902
    6620.9550  56038.953000  43140.168128  5748.055009
    6625.8530  56197.637000  43560.601641  5811.374453
    6630.8500  56404.844000  44028.552387  5891.221381
    6635.8550  56617.578000  44512.008307  5973.595470
    6640.8690  56821.836000  45003.973617  6055.505077
    6645.8910  57008.625000  45469.454561  6128.939738
    6650.9190  57174.934000  45930.440343  6209.901818
    6655.9570  57361.773000  46400.939453  6286.394569
    6661.0960  57552.137000  46883.948500  6372.414036
    6666.1500  57726.027000  47358.468201  6452.964556
    6671.3050  57870.441000  47809.498641  6530.041745
    6676.4690  58072.383000  48335.037668  6617.645984
    6681.6420  58223.848000  48808.087679  6700.787322
    6686.8220  58365.844000  49279.651912  6781.452118
    6692.0110  58400.363000  49656.723814  6854.646926
    6697.3030  58244.406000  49898.305961  6903.372453
    6702.5090  55773.977000  48118.397991  6668.617710
    6707.7240  60530.074000  52600.000668  7306.403332
    6713.0420  60219.699000  52734.116853  7347.709446
    6718.3690  60074.848000  52988.735406  7403.555453
    6723.7050  60113.523000  53422.874974  7482.919509
    6729.0490  60161.723000  53889.519712  7564.815963
    6734.4030  60097.449000  54229.676457  7632.246980
    6739.7660  60370.703000  54863.340093  7746.199745
    6745.1370  60600.480000  55486.515864  7856.687138
    6750.6140  59745.785000  55091.202788  7824.697241
    6756.0030  58418.617000  54289.402019  7731.238219
    6761.4980  60519.973000  56694.108725  8091.315312
    6766.9060  61503.855000  58039.327771  8304.909498
    6772.4200  60046.262000  57065.054751  8188.043074
    6777.9430  61906.195000  59294.293210  8531.695113
    6783.4760  61932.656000  59749.042834  8618.888837
    6789.0180  61944.641000  60208.300754  8707.600188
    6794.5690  61880.152000  60595.069724  8789.848992
    6800.2280  61550.191000  60721.351807  8836.619516
    6805.7990  59123.754000  58719.145001  8566.924702
    6811.4770  64346.844000  64414.445023  9423.757643
    6817.0670  63572.461000  64096.257983  9397.117417
    6822.7650  63485.602000  64487.578253  9472.005133
    6828.4730  63532.270000  65016.414305  9576.428991
    6834.1900  63592.461000  65558.757762  9678.372970
    6839.9180  63703.184000  66154.609166  9786.849195
    6845.6560  63755.426000  66725.976785  9892.850595
    6851.4050  63918.199000  67379.852252  10017.394633
    6857.1630  64025.496000  67986.233696  10131.458022
    6863.0310  64147.320000  68631.125279  10254.043885
    6868.8100  64248.668000  69246.531145  10383.168193
    6874.6980  64330.543000  69840.452893  10497.817687
    6880.4980  64440.941000  70480.875318  10617.997099
    6886.4070  64529.871000  71113.812948  10748.708339
    6892.3270  64658.320000  71780.258709  10872.943872
    6898.2580  64728.301000  72403.216465  10995.715806
    6904.2000  64829.809000  73039.691533  11120.008053
    6910.1520  64916.836000  73699.661376  11249.832105
    6916.1150  65005.391000  74343.155060  11377.180115
    6922.0890  65022.477000  74927.157640  11497.060685
    6928.1750  65077.082000  75580.661048  11634.472335
    6934.1710  65206.219000  76290.685066  11772.412233
    6940.2790  65325.875000  77011.218487  11917.883723
    6946.2960  65372.063000  77645.259329  12049.889574
    6952.4280  65425.777000  78293.816231  12183.415291
    6958.5690  65538.016000  79039.874942  12337.463808
    6964.6200  65622.773000  79736.447116  12475.051690
    6970.7850  65723.070000  80448.530350  12620.160884
    6976.9600  65777.883000  81111.127366  12761.810508
    6983.1470  65853.227000  81827.226645  12905.983387
    6989.3470  65860.094000  82447.844390  13045.678170
    6995.6610  65955.484000  83180.972820  13189.916414
    7001.8820  66041.406000  83910.605251  13335.678120
    7008.1160  66099.852000  84604.749680  13488.957771
    7014.4650  66173.820000  85329.404731  13638.778784
    7020.7220  66279.320000  86073.573213  13794.120256
    7027.0960  66292.344000  86715.245942  13930.988057
    7033.3760  66347.891000  87412.437173  14080.397393
    7039.7740  66386.969000  88107.132361  14223.328763
    7046.1830  66462.570000  88848.345402  14380.799259
    7052.6040  66496.695000  89542.058939  14520.775937
    7059.0390  66538.344000  90236.290783  14678.306904
    7065.4840  66541.523000  90896.032995  14818.351203
    7071.9420  66545.227000  91544.282939  14962.930191
    7078.4130  66701.461000  92406.041132  15148.027974
    7084.8960  66683.219000  93060.315069  15294.676582
    7091.3910  66702.500000  93737.097947  15444.841027
    7097.8990  66777.305000  94515.389898  15614.526663
    7104.5260  66734.641000  95157.191679  15760.757901
    7111.0590  66747.500000  95839.502499  15911.497218

