# XDI/1.0
# Column.1: energy eV
# Column.2: i0
# Column.3: itrans
# Column.4: irefer
# Beamline.name: SSRL 2-3
# Beamline.notes: vert slits = 0.6mm
# Detector.I0: N2 15cm
# Detector.I1: N2 30cm
# Detector.I2: N2 15cm
# Element.edge: K
# Element.symbol: Cr
# Mono.d_spacing: 3.13550
# Mono.name: Si(111)
# Mono.notes: unfocused, detuned 75%, clockwise at E=5990eV
# Sample.formula: K2CrO4
# Sample.name: K2CrO4
# Sample.prep: powder on tape (4 layers)
# Sample.reference: Cr foil
# Sample.temperature: 15K
# Scan.start_time: 1997-04-18 11:01:58
# ///
#    Note: mono d_spacing is nominal!
#     exafs to K16
#     396  E XMU XMUR I0
#-------------
#   energy   i0   itrans  irefer
    5759.9890  173903.800000  3398.700908   435.300045
    5769.9800  173173.800000  3464.698842   445.299903
    5780.0070  172641.800000  3536.699430   460.299888
    5790.0030  171909.800000  3603.699370   470.299723
    5799.9650  171249.800000  3677.699090   483.300005
    5810.0340  170627.800000  3749.699022   494.300116
    5820.0000  169895.800000  3820.698686   508.299879
    5830.0020  169217.800000  3895.701020   519.300089
    5839.9710  168586.800000  3968.700657   532.299888
    5849.9750  167973.800000  4046.701136   545.300105
    5860.0160  167278.800000  4123.700259   558.299837
    5870.0220  166650.800000  4201.701680   572.300318
    5879.9930  165857.800000  4277.701338   588.300031
    5890.0000  165269.800000  4357.699541   601.299754
    5899.9710  164477.800000  4438.700293   615.299958
    5909.9780  163730.800000  4516.699896   629.299877
    5920.0210  162935.800000  4590.698808   645.300137
    5930.0260  162193.800000  4669.700405   660.299946
    5939.9950  161491.800000  4749.699569   675.299736
    5949.9990  160655.800000  4825.701864   689.300605
    5959.9650  159961.800000  4906.702054   705.300050
    5969.9670  159082.800000  4976.699008   718.299850
    5970.4870  159132.800000  4983.702426   719.300601
    5971.0060  158826.800000  4978.702427   720.300567
    5971.5260  158399.800000  4968.699902   720.299787
    5971.9720  157697.800000  4952.698321   716.299820
    5972.4920  156628.800000  4925.701370   713.299903
    5973.0120  156379.800000  4919.700545   712.299837
    5973.5320  157706.800000  4965.701680   718.300419
    5973.9780  158879.800000  5007.701070   723.300106
    5974.4980  159283.800000  5026.699053   727.299817
    5975.0190  159357.800000  5032.701858   728.300158
    5975.4640  159155.800000  5028.700479   728.299872
    5975.9850  159207.800000  5036.700813   729.300274
    5976.5060  159260.800000  5040.700750   730.299986
    5977.0260  159165.800000  5043.702454   730.300217
    5977.4730  159048.800000  5047.701915   732.300063
    5977.9940  158975.800000  5048.701035   732.300002
    5978.5150  159041.800000  5051.701215   732.300054
    5979.0370  158924.800000  5055.699063   731.299738
    5979.4830  158845.800000  5055.697981   732.299951
    5980.0050  158927.800000  5062.700371   735.299787
    5980.5260  159067.800000  5072.701553   736.300119
    5980.9730  158939.800000  5070.698170   736.299373
    5981.4950  158891.800000  5074.700292   735.300123
    5982.0160  158932.800000  5080.702154   735.300126
    5982.4630  159024.800000  5084.700682   737.300427
    5982.9860  159004.800000  5089.702548   737.300593
    5983.5070  158947.800000  5091.700425   737.300192
    5984.0300  159082.800000  5101.700020   739.300228
    5984.4770  159192.800000  5105.702469   740.300604
    5984.9990  159071.800000  5107.702388   740.300327
    5985.5210  158700.800000  5098.700322   739.300115
    5985.9700  158030.800000  5077.697703   737.299532
    5986.4920  155026.800000  4981.699038   721.300104
    5987.0150  148946.800000  4788.701050   692.300060
    5987.4630  141395.800000  4545.701450   658.300378
    5987.9860  140049.800000  4504.698998   651.299992
    5988.5090  146261.800000  4706.700664   677.300094
    5989.0320  150450.800000  4838.700149   693.299718
    5989.4800  152937.800000  4915.700679   702.299943
    5990.0030  154790.800000  4967.697871   702.299399
    5990.5260  155653.800000  4983.698621   688.299862
    5990.9750  155845.800000  4973.700134   671.300138
    5991.4990  156131.800000  4955.700461   651.300284
    5992.0210  156329.800000  4916.701497   631.299982
    5992.4710  156452.800000  4851.701009   615.300426
    5992.9950  156255.800000  4709.700924   586.300049
    5993.5180  156466.800000  4456.701181   548.300298
    5993.9670  156470.800000  4076.698261   497.299614
    5994.4920  156499.800000  3330.700799   401.300294
    5995.0160  156384.800000  2626.700870   315.300110
    5995.4650  156436.800000  2627.700409   310.299939
    5995.9890  156485.800000  3313.699606   391.300008
    5996.5140  156381.800000  4050.698977   475.299785
    5996.9630  156418.800000  4424.697991   517.299652
    5997.4880  156417.800000  4644.699293   543.300140
    5998.0120  156323.800000  4751.700230   554.299845
    5998.5380  156321.800000  4804.700469   555.300263
    5998.9870  156116.800000  4811.699966   552.300192
    5999.5130  156186.800000  4801.698583   539.300002
    6000.0370  156123.800000  4767.701306   524.300274
    6000.4870  155895.800000  4709.698227   509.299939
    6001.0130  155367.800000  4609.701983   487.300262
    6001.4620  154672.800000  4515.698665   470.299722
    6001.9880  153638.800000  4410.699938   450.299840
    6002.5130  153566.800000  4359.701761   437.300206
    6002.9640  154566.800000  4376.701530   434.300046
    6003.4900  155831.800000  4425.698948   434.299983
    6004.0160  156181.800000  4462.698881   432.300087
    6004.4660  156081.800000  4473.701888   430.300373
    6004.9930  155908.800000  4471.698083   424.299893
    6005.5180  155950.800000  4459.700329   419.300083
    6005.9700  156008.800000  4426.700135   413.299989
    6006.4960  155862.800000  4354.701792   403.300286
    6007.0220  155791.800000  4269.699715   392.299971
    6007.4730  155718.800000  4179.701433   379.300245
    6008.0000  155765.800000  4035.699308   363.299977
    6008.5260  155521.800000  3822.699753   339.299838
    6008.9780  155533.800000  3607.698633   317.299889
    6009.5040  155569.800000  3345.698549   292.299741
    6010.0320  155654.800000  3121.700030   270.299881
    6010.9360  155516.560000  2862.456640   244.064003
    6011.8390  155370.840000  2731.726360   232.357946
    6012.8180  155504.640000  2702.511620   235.181099
    6013.7980  155495.950000  2710.807840   241.533931
    6014.7780  155222.800000  2748.618726   250.414810
    6015.7580  155177.160000  2773.944826   255.826047
    6016.8150  155322.030000  2762.783192   255.764949
    6017.7960  155470.420000  2723.134178   250.233822
    6018.9290  155347.340000  2616.000208   238.232906
    6019.9860  155316.780000  2563.380187   232.760040
    6021.1200  155475.730000  2569.272134   231.816920
    6022.1770  155679.200000  2557.679698   229.401962
    6023.3880  155754.200000  2494.599321   225.518096
    6024.5220  155700.720000  2442.032546   222.162030
    6025.7330  155898.750000  2444.979548   222.334952
    6026.8690  156217.300000  2454.440877   223.038023
    6028.1570  156330.370000  2459.415019   221.269807
    6029.3690  156299.970000  2441.903958   218.031015
    6030.5820  156473.080000  2423.905258   213.321040
    6031.8720  156687.700000  2426.419350   214.140840
    6033.1610  156946.860000  2439.449201   214.490094
    6034.5280  157061.530000  2448.989865   214.366875
    6035.8190  157194.720000  2448.046334   213.774040
    6037.1870  157497.420000  2422.616313   213.710940
    6038.5550  157680.660000  2380.700682   209.176026
    6040.0000  157983.410000  2344.298072   205.171108
    6041.3700  158147.670000  2332.408015   203.695146
    6042.8160  158311.450000  2353.031026   205.748094
    6044.2640  158628.770000  2405.170253   210.331103
    6045.7120  159040.590000  2482.821097   218.442043
    6047.2370  159324.940000  2579.985463   229.083151
    6048.7630  159451.800000  2675.664290   238.252006
    6050.2890  159706.190000  2731.854861   242.952049
    6051.8160  160123.090000  2783.563195   250.181114
    6053.4220  160680.520000  2843.779695   258.937916
    6054.9510  160958.450000  2884.513506   265.225004
    6056.5570  161301.920000  2919.761364   272.041103
    6058.2410  161456.910000  2955.519077   278.385982
    6059.8490  161902.410000  3011.793493   286.260154
    6061.5350  161988.420000  3072.580773   292.663982
    6063.2220  162207.970000  3132.881780   297.597099
    6064.9100  162573.030000  3190.696770   305.059120
    6066.6760  162896.610000  3241.025218   309.049972
    6068.3650  163396.700000  3285.865168   308.569859
    6070.1330  163791.330000  3317.220520   307.621004
    6071.9020  164383.470000  3326.091630   305.199057
    6073.7490  164799.120000  3319.473804   302.307151
    6075.5210  165207.300000  3311.370159   303.943956
    6077.3690  165707.000000  3308.778766   307.111062
    6079.2200  166194.220000  3301.702037   309.806957
    6081.1490  166846.950000  3299.137020   314.030842
    6083.0020  167347.200000  3295.087411   319.785985
    6084.9340  167745.980000  3306.551526   322.068769
    6086.8660  168349.280000  3326.530499   327.881134
    6088.8000  169033.090000  3358.019933   331.222970
    6090.8130  169595.420000  3399.025314   330.093846
    6092.8270  170205.280000  3449.544654   328.493982
    6094.8430  170730.660000  3492.578285   324.423093
    6096.8590  171414.550000  3529.124742   319.882318
    6098.8780  171923.950000  3548.181532   316.869972
    6100.9750  172604.890000  3563.756231   315.386979
    6103.0750  173100.340000  3572.842246   315.433128
    6105.1750  173717.310000  3579.439854   322.007746
    6107.2770  174560.810000  3577.553412   328.111812
    6109.4590  175304.810000  3567.183077   335.746197
    6111.6430  175727.340000  3565.322773   342.908919
    6113.8270  176349.390000  3581.978128   350.601229
    6116.0130  177043.970000  3603.145161   357.821908
    6118.2800  177849.050000  3619.826718   360.573001
    6120.4700  178515.660000  3629.022501   360.852976
    6122.7400  179295.780000  3631.732635   359.662152
    6125.0110  180068.440000  3639.953842   361.000116
    6127.3630  180825.590000  3664.690834   364.868223
    6129.6390  181645.280000  3706.940133   370.264292
    6131.9950  182206.480000  3752.703635   377.189920
    6134.3520  183103.220000  3812.980007   387.645133
    6136.7900  183615.450000  3883.771140   395.629000
    6139.1510  184435.220000  3965.073098   403.143094
    6141.5940  185106.500000  4030.890564   409.185097
    6144.0380  185993.310000  4087.222751   412.756976
    6146.4840  186682.620000  4133.067865   415.858158
    6148.9320  187646.470000  4180.424155   419.487611
    6151.4620  188600.830000  4234.298924   421.648087
    6153.9940  189375.720000  4290.683217   425.335920
    6156.5280  190040.110000  4333.585048   429.553988
    6159.0640  190883.030000  4373.995232   431.301815
    6161.6030  191626.470000  4418.923032   430.577912
    6164.2220  192320.440000  4460.362047   431.382953
    6166.8440  193282.910000  4510.314886   430.717856
    6169.4700  194058.910000  4560.785068   437.581972
    6172.0960  194842.420000  4617.766420   447.974991
    6174.8060  195983.470000  4693.259446   460.897003
    6177.5170  196615.020000  4758.267368   474.349258
    6180.2310  197497.090000  4834.790751   488.329376
    6182.9480  198530.690000  4902.825628   501.839314
    6185.6670  199133.810000  4947.374396   507.878014
    6188.4690  200184.450000  4998.436640   517.447189
    6191.2730  201078.590000  5047.014229   523.544015
    6194.0810  201805.280000  5095.099891   529.169899
    6196.8910  202931.470000  5150.703647   538.326695
    6199.7030  203855.190000  5194.819551   543.011864
    6202.5990  204229.410000  5229.454240   551.227274
    6205.4980  205212.170000  5278.597405   558.969941
    6208.3990  206110.440000  5326.253813   567.242794
    6211.3040  207058.230000  5373.422583   577.043894
    6214.2100  208326.550000  5428.108879   585.375827
    6217.2020  209226.370000  5475.309347   589.236160
    6220.1960  210294.720000  5534.022656   596.625286
    6223.1930  211148.590000  5592.246605   600.544283
    6226.1930  212207.980000  5653.986273   601.991972
    6229.1960  213214.890000  5714.235573   604.969963
    6232.2840  214026.310000  5767.005402   604.476764
    6235.3750  214541.270000  5819.283364   608.511858
    6238.4690  217005.730000  5913.079482   614.076208
    6241.5650  212780.720000  5820.383493   603.170814
    6244.7480  216485.220000  5946.205454   615.794040
    6247.8520  218603.250000  6040.540188   626.946194
    6251.0410  219869.800000  6110.389707   639.628048
    6254.2330  220867.860000  6178.753822   653.839483
    6257.4290  221733.440000  6242.626078   668.578769
    6260.7100  222929.550000  6326.016937   683.848281
    6263.9130  223864.170000  6402.915823   698.645711
    6267.2020  224767.310000  6480.331648   706.974055
    6270.4940  225883.970000  6565.262294   715.830738
    6273.7900  226931.160000  6643.704480   728.216934
    6277.1720  227860.860000  6722.661815   739.131951
    6280.4750  229062.080000  6803.131756   749.576468
    6283.8650  230050.810000  6875.120685   758.551335
    6287.2580  230989.080000  6946.614626   766.052508
    6290.6550  232017.860000  7026.630946   776.086226
    6294.0560  233129.160000  7122.149919   784.645414
    6297.5440  233888.970000  7207.192715   799.737697
    6300.9540  235122.310000  7302.741655   813.356999
    6304.4500  236165.170000  7397.805729   826.505616
    6307.9500  237127.550000  7494.385813   839.184394
    6311.5380  238213.450000  7593.481034   852.391902
    6315.0470  239415.860000  7687.088013   863.128275
    6318.5600  240370.800000  7764.210141   871.394681
    6322.1610  241188.250000  7841.841946   878.188293
    6325.7660  242282.230000  7935.991400   884.513313
    6329.3750  243453.720000  8032.653027   894.366049
    6333.0730  244377.730000  8136.825384   906.748733
    6336.6910  245551.270000  8236.510445   919.660926
    6340.3970  246463.330000  8328.715310   929.101973
    6344.1090  247635.890000  8419.432962   945.072610
    6347.8260  248561.980000  8507.654017   957.570655
    6351.5460  249527.590000  8601.395781   972.599875
    6355.2710  250569.730000  8693.653225   988.157921
    6359.0850  251316.370000  8777.429382  1004.244566
    6362.8190  252623.550000  8879.705890  1020.860027
    6366.6450  253692.230000  8975.510737  1036.006937
    6370.4730  254186.450000  9050.817208  1049.680732
    6374.3070  255577.190000  9160.643960  1063.884122
    6378.2300  256670.420000  9262.980355  1078.618278
    6382.0750  257463.200000  9360.828460  1088.880166
    6386.0090  258519.480000  9473.193271  1103.672272
    6389.9480  259109.300000  9567.069875  1116.990461
    6393.8930  260044.620000  9673.461727  1130.841710
    6397.8420  261207.470000  9776.367519  1147.220426
    6401.8820  262192.840000  9879.790070  1160.129067
    6405.8430  263054.720000  9977.724630  1174.566415
    6409.8940  263854.120000  10079.174603  1190.533320
    6413.9500  264895.030000  10190.130301  1206.028385
    6418.0130  265576.500000  10284.603127  1220.053774
    6422.0810  267109.440000  10424.590247  1241.608184
    6426.1530  268381.940000  10553.094297  1258.690777
    6430.3180  269314.940000  10668.105284  1274.304418
    6434.4020  270287.470000  10795.637273  1292.446710
    6438.5790  271248.500000  10925.673371  1304.117250
    6442.7610  271968.060000  11039.233763  1323.318548
    6446.9490  272972.120000  11172.301842  1342.047812
    6451.2300  273956.750000  11301.881850  1363.306838
    6455.4300  274790.840000  11416.974355  1382.093290
    6459.7230  275859.500000  11562.587590  1408.410380
    6463.9340  276485.660000  11685.712679  1424.257973
    6468.2390  277463.340000  11828.345553  1447.633011
    6472.5500  278374.530000  11959.505927  1469.537076
    6476.9550  279343.250000  12097.167235  1493.971951
    6481.2780  280024.500000  12222.336022  1515.934529
    6485.6070  281175.250000  12370.036541  1538.428038
    6490.0310  282214.530000  12520.239895  1559.448957
    6494.4610  283082.310000  12658.952893  1576.999047
    6498.8980  283743.620000  12787.192499  1595.080307
    6503.3410  284421.470000  12924.932363  1616.688930
    6507.7900  285240.810000  13067.193430  1636.827261
    6512.3350  285737.690000  13188.974589  1654.495655
    6516.7970  286753.090000  13346.251139  1680.691863
    6521.3550  287602.000000  13493.047866  1705.416871
    6525.9200  288632.440000  13655.372647  1733.674327
    6530.4920  289395.370000  13797.188168  1758.457168
    6535.0690  289913.840000  13934.541747  1780.771639
    6539.6550  290779.840000  14082.394740  1801.614878
    6544.2470  291114.340000  14201.762988  1822.984715
    6548.9360  291493.370000  14328.638991  1841.886395
    6553.5410  292250.940000  14468.036209  1864.318959
    6558.2440  292934.000000  14615.948970  1887.277525
    6562.9540  293557.590000  14758.362010  1910.765292
    6567.6710  294126.690000  14903.298926  1934.783808
    6572.3950  295073.310000  15066.757606  1959.332461
    6577.2180  295869.470000  15226.713879  1986.406798
    6581.9560  296333.120000  15362.188944  2010.013075
    6586.7920  297010.310000  15521.184799  2036.148131
    6591.5460  297755.030000  15681.694889  2057.813685
    6596.3970  298192.250000  15825.703353  2075.004688
    6601.2570  298657.000000  15978.239379  2105.729068
    6606.1250  299374.250000  16136.285001  2130.981055
    6611.0910  299705.030000  16286.845503  2153.761305
    6615.9730  300108.340000  16439.920318  2178.070826
    6620.9550  301138.190000  16618.495509  2210.910148
    6625.8530  301173.500000  16751.595553  2233.278110
    6630.8500  302103.370000  16932.218778  2260.177259
    6635.8550  302300.750000  17078.346640  2283.605110
    6640.8690  302633.660000  17235.979513  2312.559757
    6645.8910  303329.090000  17420.128043  2342.044631
    6650.9190  304292.030000  17613.803163  2376.060503
    6655.9570  304438.470000  17765.972985  2404.603434
    6661.0960  304946.470000  17927.668631  2436.674629
    6666.1500  305168.970000  18076.877280  2460.276208
    6671.3050  305658.970000  18254.598180  2488.407639
    6676.4690  305445.500000  18386.843223  2518.071590
    6681.6420  305618.560000  18545.585614  2546.260439
    6686.8220  305613.160000  18696.851098  2575.977617
    6692.0110  305257.250000  18829.633215  2599.229003
    6697.3030  303737.840000  18884.924550  2614.006132
    6702.5090  290402.000000  18225.727048  2529.311598
    6707.7240  326199.660000  20615.034669  2862.145871
    6713.0420  314619.810000  20027.873083  2789.512802
    6718.3690  312261.530000  20031.220349  2799.408301
    6723.7050  311987.720000  20174.064182  2820.829041
    6729.0490  311394.470000  20305.433305  2845.780869
    6734.4030  310103.720000  20379.323280  2864.262277
    6739.7660  315407.500000  20904.730092  2942.276065
    6745.1370  311778.780000  20845.641755  2947.817004
    6750.6140  307447.590000  20686.072210  2928.887429
    6756.0030  307581.910000  20920.999719  2970.482584
    6761.4980  314065.780000  21536.463049  3066.612261
    6766.9060  315710.120000  21780.421083  3108.270465
    6772.4200  308390.030000  21453.897125  3068.455416
    6777.9430  316963.440000  22216.903898  3192.171595
    6783.4760  316096.370000  22330.403498  3219.416511
    6789.0180  315110.810000  22439.422718  3239.186943
    6794.5690  314016.780000  22551.970009  3259.492225
    6800.2280  310715.280000  22487.014167  3262.324553
    6805.7990  298830.280000  21840.559896  3173.686312
    6811.4770  328341.810000  24138.647082  3511.576807
    6817.0670  322241.840000  23896.244664  3486.998437
    6822.7650  320957.410000  23989.336886  3508.945045
    6828.4730  319762.500000  24099.944383  3534.421132
    6834.1900  319568.090000  24288.071993  3571.431034
    6839.9180  319395.220000  24482.737322  3606.970669
    6845.6560  319144.870000  24656.884157  3642.036990
    6851.4050  319310.030000  24868.563895  3682.631255
    6857.1630  319148.720000  25052.739956  3718.755990
    6863.0310  318975.910000  25249.430037  3759.408318
    6868.8100  318797.620000  25439.637302  3798.588238
    6874.6980  319110.870000  25680.362564  3844.300252
    6880.4980  319395.620000  25916.621574  3893.542932
    6886.4070  319121.910000  26108.376272  3937.315685
    6892.3270  319028.720000  26316.631877  3975.613716
    6898.2580  318742.030000  26512.414427  4013.445472
    6904.2000  319029.870000  26760.709136  4056.801011
    6910.1520  318715.220000  26957.511457  4092.688040
    6916.1150  318925.090000  27194.839951  4134.106602
    6922.0890  318219.500000  27368.655432  4171.048305
    6928.1750  317797.410000  27550.015667  4211.526219
    6934.1710  318152.840000  27815.874871  4267.528680
    6940.2790  318340.810000  28059.255403  4323.064555
    6946.2960  317899.280000  28256.135025  4362.126217
    6952.4280  317858.280000  28485.540939  4409.717476
    6958.5690  318199.810000  28749.446612  4458.839448
    6964.6200  318174.840000  28971.889810  4507.488131
    6970.7850  318587.370000  29263.814550  4568.663697
    6976.9600  318252.470000  29460.282451  4610.374078
    6983.1470  318612.060000  29740.247106  4665.613094
    6989.3470  318245.160000  29953.735135  4706.379972
    6995.6610  317948.780000  30163.732757  4757.675938
    7001.8820  318160.940000  30407.228367  4817.501128
    7008.1160  317849.620000  30627.257421  4863.855216
    7014.4650  317972.810000  30879.788498  4918.737422
    7020.7220  317413.500000  31069.863816  4960.151776
    7027.0960  317271.750000  31293.414066  5009.092005
    7033.3760  317191.500000  31544.482496  5063.559490
    7039.7740  316961.750000  31771.101036  5114.568848
    7046.1830  316913.560000  32024.206031  5166.100018
    7052.6040  316781.840000  32262.815207  5217.155526
    7059.0390  316631.690000  32508.943536  5269.741116
    7065.4840  316372.030000  32724.591576  5319.859170
    7071.9420  316296.910000  32981.749435  5371.506241
    7078.4130  316231.280000  33232.417977  5426.681713
    7084.8960  316024.190000  33461.608318  5479.389893
    7091.3910  315873.620000  33723.306872  5524.624034
    7097.8990  315587.560000  33958.533291  5588.389664
    7104.5260  315399.030000  34218.266137  5644.674866
    7111.0590  315268.000000  34466.508029  5704.498481

