# XDI/1.0
# Column.1: energy eV
# Column.2: i0
# Column.3: itrans
# Column.4: irefer
# Beamline.name: SSRL 2-3
# Beamline.notes: vert slits = 0.6mm
# Detector.I0: N2 15cm
# Detector.I1: N2 30cm
# Detector.I2: N2 15cm
# Element.edge: K
# Element.symbol: Cr
# Mono.d_spacing: 3.13550
# Mono.name: Si(111)
# Mono.notes: unfocused, detuned 75%, clockwise at E=5990eV
# Sample.formula: K2CrO4
# Sample.name: K2CrO4
# Sample.prep: powder on tape (5 layers)
# Sample.reference: Cr foil
# Sample.temperature: room temperature
# Scan.start_time: 1997-04-17 22:36:29
# ///
#    Note: mono d_spacing is nominal!
#     exafs to K16
#     396  E XMU XMUR I0
#-------------
#   energy   i0   itrans  irefer
    5759.9890  25392.900000  7338.501066   934.700247
    5769.9800  25378.900000  7498.500897   960.700205
    5780.0070  25345.900000  7651.502098   987.700249
    5790.0030  25292.900000  7805.500863  1014.699718
    5799.9650  25263.900000  7967.497865  1042.699996
    5810.0340  25238.900000  8133.500975  1069.700235
    5820.0000  25203.900000  8294.500829  1097.699630
    5830.0020  25177.900000  8467.502709  1125.700632
    5839.9710  25140.900000  8635.503353  1155.700903
    5849.9750  25100.900000  8802.499384  1184.700147
    5860.0160  25061.900000  8976.497426  1213.699053
    5870.0220  25017.900000  9147.499549  1244.700039
    5879.9930  24978.900000  9322.500330  1276.700312
    5890.0000  24932.900000  9499.499533  1307.700324
    5899.9710  24876.900000  9675.500434  1339.700340
    5909.9780  24825.900000  9855.499882  1373.699772
    5920.0210  24769.900000  10030.499550  1404.699508
    5930.0260  24713.900000  10206.499655  1438.699727
    5939.9950  24669.900000  10386.499907  1471.699532
    5949.9990  24620.900000  10566.499541  1505.699502
    5959.9650  24583.900000  10749.500164  1538.700543
    5969.9670  24505.900000  10920.500525  1572.699870
    5970.4870  24510.900000  10931.499856  1574.699588
    5971.0060  24444.900000  10907.499773  1571.699637
    5971.5260  24319.900000  10852.499751  1560.700010
    5971.9720  24201.900000  10813.499880  1557.699950
    5972.4920  24172.900000  10813.500189  1557.699995
    5973.0120  24279.900000  10873.500121  1566.700237
    5973.5320  24450.900000  10960.500265  1577.699739
    5973.9780  24550.900000  11015.500458  1588.700543
    5974.4980  24584.900000  11036.499688  1590.699622
    5975.0190  24585.900000  11045.500030  1592.700667
    5975.4640  24565.900000  11048.500335  1591.700119
    5975.9850  24577.900000  11063.499596  1595.699767
    5976.5060  24599.900000  11078.499832  1597.700292
    5977.0260  24592.900000  11084.500525  1597.699502
    5977.4730  24583.900000  11088.500243  1598.699613
    5977.9940  24606.900000  11107.500395  1600.699292
    5978.5150  24628.900000  11121.499759  1603.699504
    5979.0370  24632.900000  11138.499691  1604.699558
    5979.4830  24619.900000  11141.499818  1607.700439
    5980.0050  24647.900000  11165.500414  1609.699804
    5980.5260  24652.900000  11175.499535  1611.700513
    5980.9730  24655.900000  11183.500503  1611.700000
    5981.4950  24645.900000  11186.499596  1612.699782
    5982.0160  24667.900000  11207.500070  1613.699232
    5982.4630  24640.900000  11201.499620  1614.699165
    5982.9860  24651.900000  11214.499919  1615.700448
    5983.5070  24641.900000  11219.500115  1616.700504
    5984.0300  24670.900000  11235.500034  1618.700087
    5984.4770  24683.900000  11252.499809  1620.700250
    5984.9990  24633.900000  11229.499988  1618.699814
    5985.5210  24483.900000  11168.500479  1608.699934
    5985.9700  24222.900000  11047.500096  1591.699267
    5986.4920  23528.900000  10738.500411  1547.700766
    5987.0150  22033.900000  10059.500149  1446.700544
    5987.4630  21310.900000  9736.499696  1397.699511
    5987.9860  22298.900000  10183.499862  1458.700178
    5988.5090  23275.900000  10623.499598  1517.700697
    5989.0320  23732.900000  10822.499684  1538.700565
    5989.4800  23982.900000  10927.500313  1543.700686
    5990.0030  24186.900000  11000.500418  1526.700337
    5990.5260  24275.900000  11008.499857  1484.699936
    5990.9750  24315.900000  10989.499845  1445.699456
    5991.4990  24345.900000  10922.499734  1403.700351
    5992.0210  24370.900000  10795.500183  1358.700051
    5992.4710  24383.900000  10587.500196  1313.700650
    5992.9950  24386.900000  10168.499963  1241.700366
    5993.5180  24393.900000  9342.500174  1126.699882
    5993.9670  24418.900000  8123.502655   969.699958
    5994.4920  24423.900000  6444.500691   760.700288
    5995.0160  24412.900000  5976.497423   699.699502
    5995.4650  24410.900000  7013.499233   816.700165
    5995.9890  24415.900000  8719.497058  1012.699522
    5996.5140  24440.900000  9827.499805  1141.700204
    5996.9630  24410.900000  10263.500428  1193.700271
    5997.4880  24405.900000  10517.499683  1221.700214
    5998.0120  24404.900000  10649.499884  1228.700285
    5998.5380  24425.900000  10704.500331  1221.699894
    5998.9870  24403.900000  10679.500423  1201.699801
    5999.5130  24386.900000  10606.499811  1169.699646
    6000.0370  24382.900000  10494.499544  1134.699964
    6000.4870  24353.900000  10343.499978  1097.700241
    6001.0130  24230.900000  10113.500133  1050.699548
    6001.4620  24080.900000  9916.499590  1012.699963
    6001.9880  24028.900000  9782.499975   981.699596
    6002.5130  24110.900000  9766.499590   966.700184
    6002.9640  24232.900000  9829.500451   960.700199
    6003.4900  24347.900000  9917.500299   957.699623
    6004.0160  24385.900000  9962.499525   951.700396
    6004.4660  24394.900000  9968.499728   944.699959
    6004.9930  24382.900000  9929.500423   930.700423
    6005.5180  24358.900000  9834.499745   913.699612
    6005.9700  24376.900000  9731.500154   895.699826
    6006.4960  24372.900000  9566.500449   874.699797
    6007.0220  24372.900000  9343.500420   845.699621
    6007.4730  24354.900000  9072.500011   813.700319
    6008.0000  24365.900000  8670.501340   770.699769
    6008.5260  24368.900000  8173.496039   718.699988
    6008.9780  24356.900000  7740.499164   676.699603
    6009.5040  24351.900000  7304.502035   630.699899
    6010.0320  24367.900000  6955.499853   594.699937
    6010.9360  24356.664000  6557.257737   556.465273
    6011.8390  24348.951000  6384.522924   543.758409
    6012.8180  24343.768000  6319.296461   550.581042
    6013.7980  24351.107000  6346.581430   566.932126
    6014.7780  24361.975000  6399.382588   584.812214
    6015.7580  24355.367000  6395.689424   590.221869
    6016.8150  24347.285000  6310.502724   582.159592
    6017.7960  24372.730000  6178.835877   567.627369
    6018.9290  24391.701000  6055.675621   547.624170
    6019.9860  24416.197000  6007.019629   538.147670
    6021.1200  24414.219000  5938.880862   529.202940
    6022.1770  24433.768000  5841.251723   520.786094
    6023.3880  24476.842000  5752.131295   516.897050
    6024.5220  24521.441000  5735.522638   519.539144
    6025.7330  24576.566000  5768.426775   522.708353
    6026.8690  24600.219000  5782.836726   520.408263
    6028.1570  24622.396000  5774.758488   514.634898
    6029.3690  24661.100000  5759.191518   509.392267
    6030.5820  24700.330000  5751.131418   506.677589
    6031.8720  24720.086000  5748.587150   505.493101
    6033.1610  24760.367000  5749.548155   502.836742
    6034.5280  24801.174000  5737.026190   501.709000
    6035.8190  24856.508000  5698.007826   498.110973
    6037.1870  24891.367000  5626.502573   492.041624
    6038.5550  24920.752000  5554.513664   484.501317
    6040.0000  24975.664000  5519.028844   479.490072
    6041.3700  25031.102000  5538.053757   480.007827
    6042.8160  25090.064000  5628.589687   488.054066
    6044.2640  25132.553000  5774.640123   501.630211
    6045.7120  25177.568000  5951.197378   519.734299
    6047.2370  25246.109000  6172.266083   541.368029
    6048.7630  25318.176000  6347.846089   559.530386
    6050.2890  25395.768000  6457.934604   573.221283
    6051.8160  25447.887000  6571.530210   588.441780
    6053.4220  25506.531000  6703.639159   607.190643
    6054.9510  25570.701000  6808.264241   623.469273
    6056.5570  25637.398000  6900.391470   638.277042
    6058.2410  25712.621000  7009.034508   653.612874
    6059.8490  25764.369000  7119.186697   667.478226
    6061.5350  25795.643000  7227.849869   680.872375
    6063.2220  25838.443000  7325.023929   691.795022
    6064.9100  25908.770000  7431.706590   699.248230
    6066.6760  25998.621000  7530.899560   703.229135
    6068.3650  26088.000000  7607.605256   703.738415
    6070.1330  26159.904000  7654.814964   698.776631
    6071.9020  26254.332000  7692.539815   693.344703
    6073.7490  26337.289000  7716.776829   690.442051
    6075.5210  26433.770000  7736.522981   698.068083
    6077.3690  26522.777000  7751.775185   707.221670
    6079.2200  26611.313000  7768.541411   719.906041
    6081.1490  26708.371000  7792.821870   734.119128
    6083.0020  26812.957000  7827.610107   748.861101
    6084.9340  26907.068000  7871.904303   761.130846
    6086.8660  27013.705000  7920.713814   770.930794
    6088.8000  27114.867000  7982.033274   773.260085
    6090.8130  27220.557000  8048.859947   768.116749
    6092.8270  27325.771000  8112.201202   756.503022
    6094.8430  27438.512000  8163.055717   745.419281
    6096.8590  27520.779000  8202.412508   734.864110
    6098.8780  27651.572000  8246.283219   726.836721
    6100.9750  27778.891000  8282.662012   723.338785
    6103.0750  27908.736000  8321.560173   728.371367
    6105.1750  28027.105000  8346.957303   741.931081
    6107.2770  28140.002000  8371.868713   760.019736
    6109.4590  28243.426000  8402.293653   781.638222
    6111.6430  28370.373000  8445.226719   802.785597
    6113.8270  28437.848000  8462.671755   819.460513
    6116.0130  28572.848000  8498.629339   829.667630
    6118.2800  28707.375000  8529.093283   837.401243
    6120.4700  28840.426000  8562.070857   837.664249
    6122.7400  28974.004000  8605.555768   840.456581
    6125.0110  29107.107000  8666.546390   843.776501
    6127.3630  29245.738000  8746.055980   855.626657
    6129.6390  29380.895000  8835.075340   869.005898
    6131.9950  29498.576000  8942.596569   884.913827
    6134.3520  29646.783000  9065.641609   902.350386
    6136.7900  29769.518000  9189.182565   917.315310
    6139.1510  29902.775000  9316.241599   930.810363
    6141.5940  30051.561000  9446.814610   942.834615
    6144.0380  30190.873000  9581.897681   953.387984
    6146.4840  30363.711000  9717.488286   964.470704
    6148.9320  30517.074000  9843.588507   972.080490
    6151.4620  30662.963000  9976.192548   981.219110
    6153.9940  30798.377000  10097.319512   990.888755
    6156.5280  30987.318000  10233.943853  1000.085028
    6159.0640  31107.785000  10354.095163  1007.812469
    6161.6030  31275.777000  10474.742678  1010.067237
    6164.2220  31436.297000  10608.909646  1012.852068
    6166.8440  31607.342000  10742.581629  1017.166108
    6169.4700  31763.912000  10872.762434  1035.006599
    6172.0960  31931.010000  11014.456508  1060.379261
    6174.8060  32102.631000  11149.659835  1088.278391
    6177.5170  32269.781000  11290.382076  1117.709184
    6180.2310  32428.455000  11422.604901  1144.667587
    6182.9480  32598.654000  11549.336613  1168.153152
    6185.6670  32777.379000  11681.584329  1187.169156
    6188.4690  32964.633000  11821.338661  1205.714406
    6191.2730  33155.410000  11952.612825  1221.788661
    6194.0810  33329.715000  12076.390418  1238.392715
    6196.8910  33491.547000  12195.683512  1253.524368
    6199.7030  33665.902000  12321.473030  1272.185789
    6202.5990  33845.781000  12443.785647  1289.374676
    6205.4980  34000.191000  12552.605358  1307.093856
    6208.3990  34179.125000  12680.936181  1326.342001
    6211.3040  34379.582000  12818.775622  1349.119209
    6214.2100  34599.570000  12956.126360  1372.424322
    6217.2020  34796.082000  13091.987400  1389.258837
    6220.1960  34973.117000  13224.358641  1402.623597
    6223.1930  35175.680000  13361.242092  1410.515351
    6226.1930  35363.770000  13494.634334  1417.937215
    6229.1960  35578.387000  13636.538530  1423.887557
    6232.2840  35792.527000  13782.951482  1431.367711
    6235.3750  35793.195000  13850.874778  1428.376367
    6238.4690  36264.387000  14106.309581  1444.913106
    6241.5650  35467.105000  13866.254397  1415.980391
    6244.7480  36405.352000  14307.710629  1457.575730
    6247.8520  36677.121000  14491.676566  1479.700133
    6251.0410  36923.418000  14670.150981  1511.353919
    6254.2330  37126.242000  14841.138470  1553.536510
    6257.4290  37331.590000  15012.636580  1592.247094
    6260.7100  37536.465000  15195.643281  1628.487647
    6263.9130  37768.863000  15382.160564  1658.255976
    6267.2020  37987.789000  15572.187429  1682.554991
    6270.4940  38200.242000  15770.727798  1706.382360
    6273.7900  38411.219000  15961.776229  1730.736219
    6277.1720  38630.727000  16169.337407  1757.623647
    6280.4750  38841.754000  16367.407372  1787.037109
    6283.8650  39070.313000  16587.988022  1815.979189
    6287.2580  39267.391000  16792.078022  1840.452065
    6290.6550  39486.000000  17004.679633  1865.452365
    6294.0560  39739.133000  17235.791451  1897.981817
    6297.5440  39951.793000  17455.413893  1929.042667
    6300.9540  40154.980000  17669.547322  1960.629642
    6304.4500  40370.691000  17889.188776  1991.745822
    6307.9500  40608.930000  18132.343787  2024.391766
    6311.5380  40817.691000  18350.007631  2049.565850
    6315.0470  41032.980000  18571.182171  2074.271554
    6318.5600  41278.797000  18812.867521  2100.503501
    6322.1610  41468.137000  19029.063136  2121.264661
    6325.7660  41721.004000  19278.768160  2141.555416
    6329.3750  41956.398000  19515.984275  2166.374074
    6333.0730  42200.316000  19759.711839  2195.724607
    6336.6910  42425.762000  19997.946076  2223.600151
    6340.3970  42649.730000  20229.694370  2256.007241
    6344.1090  42899.230000  20484.952189  2291.942192
    6347.8260  43113.254000  20717.724030  2328.407523
    6351.5460  43355.801000  20968.999065  2366.400708
    6355.2710  43592.875000  21207.791115  2402.922295
    6359.0850  43835.477000  21464.089152  2444.973457
    6362.8190  44059.602000  21713.899994  2485.554089
    6366.6450  44320.254000  21973.220754  2530.663379
    6370.4730  44522.434000  22212.051390  2572.301432
    6374.3070  44764.137000  22482.393807  2607.470268
    6378.2300  45000.367000  22743.244251  2645.164207
    6382.0750  45244.121000  23004.607893  2679.391025
    6386.0090  45466.406000  23267.481072  2716.145348
    6389.9480  45673.211000  23520.861093  2752.426079
    6393.8930  45930.547000  23802.756843  2794.237910
    6397.8420  46193.406000  24101.159723  2834.577683
    6401.8820  46435.793000  24381.073686  2872.449536
    6405.8430  46658.703000  24656.497829  2904.849174
    6409.8940  46890.141000  24942.434260  2945.776767
    6413.9500  47150.105000  25245.881563  2987.234479
    6418.0130  47389.594000  25547.834783  3033.219415
    6422.0810  47622.609000  25855.303064  3077.734356
    6426.1530  47799.148000  26134.278760  3116.778122
    6430.3180  48089.219000  26484.769046  3165.350572
    6434.4020  48322.809000  26791.765564  3204.450373
    6438.5790  48560.930000  27118.276174  3245.082904
    6442.7610  48797.574000  27453.292291  3287.242602
    6446.9490  49051.746000  27796.821558  3338.930953
    6451.2300  49257.441000  28124.861681  3388.146249
    6455.4300  49500.664000  28471.411644  3443.892883
    6459.7230  49784.414000  28842.473157  3502.167502
    6463.9340  50026.688000  29208.046110  3559.973934
    6468.2390  50250.488000  29562.124325  3617.307477
    6472.5500  50471.816000  29903.716833  3665.170229
    6476.9550  50750.668000  30310.821089  3723.562161
    6481.2780  50957.047000  30643.432402  3778.478299
    6485.6070  51206.949000  31021.553761  3839.930416
    6490.0310  51441.379000  31404.188869  3895.910010
    6494.4610  51686.336000  31788.333537  3950.413878
    6498.8980  51927.820000  32175.988557  4003.453955
    6503.3410  52182.828000  32575.151547  4059.016794
    6507.7900  52409.359000  32950.827757  4118.110255
    6512.3350  52657.422000  33358.012464  4184.733396
    6516.7970  52860.008000  33720.712423  4244.887258
    6521.3550  53127.117000  34134.915516  4314.566154
    6525.9200  53386.754000  34565.634390  4377.776569
    6530.4920  53609.918000  34961.857736  4445.514847
    6535.0690  53862.609000  35376.597948  4510.781980
    6539.6550  54088.824000  35773.846585  4573.579159
    6544.2470  54286.566000  36161.604002  4629.902886
    6548.9360  54488.832000  36546.874270  4684.759888
    6553.5410  54666.625000  36922.657129  4739.143281
    6558.2440  54940.945000  37366.944664  4805.054963
    6562.9540  55130.789000  37764.746838  4870.497287
    6567.6710  55391.160000  38205.057962  4941.470279
    6572.3950  55643.059000  38663.880507  5012.966442
    6577.2180  55850.480000  39083.212225  5080.994550
    6581.9560  56059.430000  39510.050319  5151.552255
    6586.7920  56359.902000  40001.407788  5230.640035
    6591.5460  56573.906000  40427.269875  5298.255175
    6596.3970  56787.430000  40873.641714  5374.397090
    6601.2570  57025.484000  41325.525324  5447.072757
    6606.1250  57245.063000  41780.921125  5521.274950
    6611.0910  57486.168000  42263.822596  5600.004842
    6615.9730  57728.797000  42745.239415  5680.264681
    6620.9550  57975.953000  43227.169498  5755.058580
    6625.8530  58154.637000  43669.600436  5827.372530
    6630.8500  58423.844000  44195.549509  5917.222072
    6635.8550  58607.578000  44656.010219  5990.595996
    6640.8690  58854.836000  45168.972651  6084.499097
    6645.8910  59063.625000  45649.454287  6166.939297
    6650.9190  59240.934000  46120.440921  6243.901676
    6655.9570  59486.773000  46658.941704  6339.390228
    6661.0960  59707.137000  47175.946799  6430.409107
    6666.1500  59909.027000  47665.468024  6513.964095
    6671.3050  60106.441000  48182.501088  6597.038968
    6676.4690  60319.383000  48710.041260  6680.649376
    6681.6420  60488.848000  49210.091658  6764.786607
    6686.8220  60676.844000  49729.650392  6850.449993
    6692.0110  60739.363000  50157.721580  6924.642819
    6697.3030  60622.406000  50420.304485  6979.372135
    6702.5090  57783.977000  48325.396152  6702.618177
    6707.7240  63055.074000  53186.001658  7394.402056
    6713.0420  62549.699000  53187.118031  7411.710317
    6718.3690  62522.848000  53554.737298  7485.555708
    6723.7050  62469.523000  53901.877256  7554.922260
    6729.0490  62555.723000  54369.521349  7635.815376
    6734.4030  62519.449000  54750.674723  7706.242328
    6739.7660  63201.703000  55738.340363  7870.198205
    6745.1370  63018.480000  56002.515911  7928.688336
    6750.6140  62125.785000  55679.204011  7905.697643
    6756.0030  62328.617000  56224.402015  8007.237837
    6761.4980  62835.973000  57078.109276  8147.316978
    6766.9060  63988.855000  58566.328214  8386.908075
    6772.4200  62610.262000  57721.055159  8284.042007
    6777.9430  64527.195000  59946.292889  8622.698122
    6783.4760  64593.656000  60441.042854  8720.890826
    6789.0180  64563.641000  60854.301035  8809.604084
    6794.5690  64577.152000  61305.069786  8896.852336
    6800.2280  64266.191000  61472.351955  8946.617358
    6805.7990  61992.754000  59744.145171  8722.921335
    6811.4770  66898.844000  64947.445200  9504.756975
    6817.0670  66327.461000  64843.258138  9511.113381
    6822.7650  66305.602000  65316.577991  9602.004496
    6828.4730  66350.273000  65845.413979  9702.424302
    6834.1900  66470.461000  66449.757998  9824.371078
    6839.9180  66620.180000  67093.609008  9937.850936
    6845.6560  66791.430000  67775.976883  10059.855582
    6851.4050  66907.195000  68416.852094  10188.393395
    6857.1630  67078.492000  69101.233813  10316.459052
    6863.0310  67139.320000  69676.125263  10427.043039
    6868.8100  67267.664000  70354.530837  10561.171247
    6874.6980  67384.547000  71011.453337  10678.818271
    6880.4980  67576.945000  71769.875346  10818.999750
    6886.4070  67696.867000  72445.812684  10956.707997
    6892.3270  67852.320000  73150.258315  11092.937658
    6898.2580  68003.305000  73873.218985  11234.713076
    6904.2000  68098.805000  74537.687896  11369.005936
    6910.1520  68227.836000  75260.663714  11510.833139
    6916.1150  68319.391000  75935.153717  11646.185896
    6922.0890  68365.477000  76566.157804  11779.069379
    6928.1750  68453.078000  77244.662370  11915.473122
    6934.1710  68724.219000  78132.684893  12082.419593
    6940.2790  68777.875000  78791.215240  12221.888810
    6946.2960  68897.063000  79541.257564  12372.890758
    6952.4280  68969.773000  80239.814846  12514.410698
    6958.5690  69130.016000  81019.877144  12666.472239
    6964.6200  69224.773000  81745.445026  12811.050130
    6970.7850  69370.070000  82521.528142  12965.165791
    6976.9600  69566.883000  83387.126183  13132.813362
    6983.1470  69643.227000  84078.228081  13272.983482
    6989.3470  69740.094000  84793.847670  13420.682526
    6995.6610  69777.484000  85489.971694  13562.912952
    7001.8820  69861.406000  86204.602123  13718.668440
    7008.1160  69930.852000  86915.747097  13862.955704
    7014.4650  70101.820000  87783.403503  14032.772076
    7020.7220  70205.320000  88552.570414  14190.112108
    7027.0960  70283.344000  89306.247237  14347.998330
    7033.3760  70369.891000  90074.435266  14501.402763
    7039.7740  70444.969000  90825.131273  14659.330449
    7046.1830  70527.570000  91599.342820  14824.794710
    7052.6040  70643.695000  92396.062343  14998.787469
    7059.0390  70736.344000  93178.284929  15164.295740
    7065.4840  70829.523000  93982.031083  15330.351251
    7071.9420  70843.227000  94682.279978  15482.925951
    7078.4130  70986.461000  95553.038350  15672.028023
    7084.8960  71025.219000  96299.315536  15835.673495
    7091.3910  71135.500000  97150.090655  16021.829065
    7097.8990  71178.305000  97896.389259  16188.525146
    7104.5260  71169.641000  98609.187525  16340.757337
    7111.0590  71187.500000  99344.503336  16507.496998

