# XDI/1.0
# Column.1: energy eV
# Column.2: i0
# Column.3: itrans
# Column.4: irefer
# Beamline.name: SSRL 2-3
# Beamline.notes: vert slits = 0.6mm
# Detector.I0: N2 15cm
# Detector.I1: N2 30cm
# Detector.I2: N2 15cm
# Element.edge: K
# Element.symbol: Cr
# Mono.d_spacing: 3.13550
# Mono.name: Si(111)
# Mono.notes: unfocused, detuned 75%, clockwise at E=5990eV
# Sample.formula: K2Cr2O7
# Sample.name: K2Cr2O7
# Sample.prep: powder on tape (6 layers)
# Sample.reference: Cr foil
# Sample.temperature: room temp
# Scan.start_time: 1997-04-17 18:36:45
# ///
#    Note: mono d_spacing is nominal!
#     exafs to K16
#     396  E XMU XMUR I0
#-------------
#   energy   i0   itrans  irefer
    5759.9890  26044.900000  9096.502252  1158.700330
    5769.9800  25995.900000  9277.497396  1189.699594
    5780.0070  25985.900000  9468.496056  1221.699697
    5790.0030  25920.900000  9651.500477  1252.700215
    5799.9650  25872.900000  9837.499755  1284.700464
    5810.0340  25837.900000  10034.499507  1320.700274
    5820.0000  25792.900000  10223.499676  1353.700509
    5830.0020  25739.900000  10415.500374  1386.700407
    5839.9710  25678.900000  10606.500236  1420.700476
    5849.9750  25634.900000  10807.499641  1457.700661
    5860.0160  25584.900000  11010.499678  1493.700105
    5870.0220  25492.900000  11194.499953  1526.700059
    5879.9930  25468.900000  11404.499836  1565.699987
    5890.0000  25398.900000  11604.500140  1600.699892
    5899.9710  25357.900000  11814.500330  1639.700525
    5909.9780  25297.900000  12023.500243  1679.699802
    5920.0210  25238.900000  12232.500134  1719.700857
    5930.0260  25197.900000  12452.499399  1760.699825
    5939.9950  25135.900000  12652.499735  1798.699319
    5949.9990  25091.900000  12860.499828  1838.699604
    5959.9650  25015.900000  13065.499403  1874.699018
    5969.9670  24938.900000  13254.500212  1912.700530
    5970.4870  24911.900000  13250.500177  1913.699541
    5971.0060  24906.900000  13256.499673  1916.700031
    5971.5260  24879.900000  13256.499342  1916.699983
    5971.9720  24775.900000  13208.500591  1909.700850
    5972.4920  24601.900000  13132.500025  1899.700184
    5973.0120  24551.900000  13116.499537  1896.700778
    5973.5320  24702.900000  13206.500172  1909.699969
    5973.9780  24840.900000  13292.500291  1921.699572
    5974.4980  24921.900000  13346.499423  1931.699403
    5975.0190  24969.900000  13379.500196  1935.699383
    5975.4640  24968.900000  13390.499333  1935.700837
    5975.9850  24966.900000  13397.500338  1938.700974
    5976.5060  24937.900000  13393.500268  1939.700413
    5977.0260  24949.900000  13409.500043  1940.699382
    5977.4730  24956.900000  13423.500467  1943.699152
    5977.9940  24987.900000  13452.500610  1948.701021
    5978.5150  24960.900000  13446.499347  1947.699243
    5979.0370  24970.900000  13460.499681  1949.699868
    5979.4830  24966.900000  13463.500370  1951.699141
    5980.0050  24958.900000  13475.499328  1950.699784
    5980.5260  24953.900000  13480.500348  1952.700376
    5980.9730  24958.900000  13490.500513  1954.700084
    5981.4950  24963.900000  13500.499453  1956.700588
    5982.0160  24987.900000  13520.499399  1959.699231
    5982.4630  24952.900000  13511.499638  1959.699505
    5982.9860  24953.900000  13523.500132  1960.700726
    5983.5070  24971.900000  13543.499530  1965.700544
    5984.0300  25000.900000  13561.500385  1964.700712
    5984.4770  24995.900000  13565.500087  1966.699607
    5984.9990  25001.900000  13578.499491  1969.700739
    5985.5210  24968.900000  13566.500431  1965.700264
    5985.9700  24831.900000  13496.500329  1956.700071
    5986.4920  24430.900000  13283.499482  1923.700403
    5987.0150  23542.900000  12803.500227  1853.699902
    5987.4630  22224.900000  12081.500302  1748.699523
    5987.9860  21698.900000  11794.500553  1703.700020
    5988.5090  22840.900000  12411.500327  1787.699305
    5989.0320  23675.900000  12853.500069  1846.699798
    5989.4800  24066.900000  13048.499580  1868.700281
    5990.0030  24365.900000  13189.499411  1869.700044
    5990.5260  24502.900000  13228.499800  1840.699344
    5990.9750  24568.900000  13212.499528  1792.700811
    5991.4990  24632.900000  13162.499609  1735.700100
    5992.0210  24646.900000  13015.499701  1676.700597
    5992.4710  24671.900000  12794.499400  1620.700307
    5992.9950  24668.900000  12296.499655  1535.700519
    5993.5180  24689.900000  11532.500192  1418.700275
    5993.9670  24706.900000  10689.500060  1299.700635
    5994.4920  24707.900000  9239.499620  1111.700395
    5995.0160  24708.900000  7498.496266   894.699387
    5995.4650  24716.900000  6830.502342   809.700559
    5995.9890  24714.900000  7854.497523   923.699294
    5996.5140  24689.900000  9785.499559  1147.699671
    5996.9630  24695.900000  10976.500154  1286.699790
    5997.4880  24710.900000  11775.500471  1379.700079
    5998.0120  24718.900000  12197.500250  1426.699926
    5998.5380  24692.900000  12407.500303  1442.699704
    5998.9870  24678.900000  12503.500280  1438.699568
    5999.5130  24687.900000  12532.499686  1418.700405
    6000.0370  24679.900000  12477.500309  1383.699967
    6000.4870  24650.900000  12370.500062  1346.700613
    6001.0130  24585.900000  12167.500549  1298.699667
    6001.4620  24494.900000  11955.500109  1254.699915
    6001.9880  24358.900000  11692.499710  1201.700438
    6002.5130  24298.900000  11455.500204  1159.699572
    6002.9640  24377.900000  11336.499722  1133.699959
    6003.4900  24551.900000  11259.500310  1111.699854
    6004.0160  24648.900000  11173.499681  1089.700486
    6004.4660  24652.900000  11097.499810  1072.700006
    6004.9930  24658.900000  10994.500465  1051.700302
    6005.5180  24659.900000  10846.499949  1026.699658
    6005.9700  24667.900000  10669.499994  1002.699841
    6006.4960  24633.900000  10388.500187   968.699763
    6007.0220  24626.900000  10078.499994   929.699783
    6007.4730  24650.900000  9836.499550   898.699924
    6008.0000  24649.900000  9536.500018   863.700291
    6008.5260  24632.900000  9169.499896   822.700339
    6008.9780  24621.900000  8820.497645   785.699630
    6009.5040  24654.900000  8422.499725   742.699813
    6010.0320  24641.900000  8010.500521   699.699897
    6010.9360  24624.664000  7381.253996   636.464614
    6011.8390  24612.951000  6941.519980   595.757704
    6012.8180  24604.768000  6661.297233   583.581154
    6013.7980  24625.107000  6518.579814   583.931576
    6014.7780  24614.975000  6404.379144   586.811871
    6015.7580  24618.367000  6304.689934   588.222377
    6016.8150  24618.285000  6235.504310   584.159895
    6017.7960  24649.730000  6194.835413   578.627099
    6018.9290  24650.701000  6167.671266   569.624070
    6019.9860  24654.197000  6177.021206   563.147976
    6021.1200  24660.219000  6195.878906   559.203057
    6022.1770  24720.768000  6206.249077   561.785991
    6023.3880  24744.842000  6160.131121   558.897080
    6024.5220  24767.441000  6085.524557   556.538976
    6025.7330  24780.566000  6004.425117   552.708090
    6026.8690  24822.219000  5947.834356   545.407629
    6028.1570  24828.396000  5884.760235   535.635170
    6029.3690  24868.100000  5836.188080   525.391730
    6030.5820  24880.330000  5790.134560   517.678198
    6031.8720  24920.086000  5757.585167   511.492756
    6033.1610  24970.367000  5742.552523   507.837280
    6034.5280  25021.174000  5745.025939   507.709130
    6035.8190  25045.508000  5749.008988   508.110919
    6037.1870  25058.367000  5757.502482   506.041693
    6038.5550  25118.752000  5784.510021   506.500818
    6040.0000  25179.664000  5828.027953   508.490211
    6041.3700  25212.102000  5886.055726   513.007978
    6042.8160  25235.064000  5964.590817   521.054027
    6044.2640  25303.553000  6071.640430   528.630183
    6045.7120  25349.568000  6177.197493   542.734347
    6047.2370  25432.109000  6319.262508   557.368047
    6048.7630  25462.176000  6455.845871   570.530332
    6050.2890  25523.768000  6559.931078   583.221109
    6051.8160  25567.887000  6655.530412   597.442132
    6053.4220  25667.531000  6819.640842   620.190747
    6054.9510  25754.701000  6982.263679   642.468927
    6056.5570  25797.398000  7125.391230   661.277065
    6058.2410  25871.621000  7266.034295   681.612921
    6059.8490  25917.369000  7373.189361   695.478182
    6061.5350  25965.643000  7455.844646   705.871719
    6063.2220  25997.443000  7522.023521   714.795484
    6064.9100  26084.770000  7602.701306   720.247497
    6066.6760  26127.621000  7660.896631   721.228718
    6068.3650  26228.000000  7733.600543   720.738097
    6070.1330  26278.904000  7783.814300   716.776995
    6071.9020  26405.332000  7857.542979   714.345143
    6073.7490  26518.289000  7920.779684   715.442280
    6075.5210  26618.770000  7982.523632   723.068444
    6077.3690  26680.777000  8020.777350   733.222074
    6079.2200  26772.313000  8068.545709   747.906175
    6081.1490  26852.371000  8101.823197   762.119526
    6083.0020  26993.957000  8148.607275   777.860580
    6084.9340  27092.068000  8177.904885   793.130894
    6086.8660  27197.705000  8212.715260   800.931058
    6088.8000  27301.867000  8249.033881   803.259936
    6090.8130  27361.557000  8271.865013   795.117003
    6092.8270  27469.771000  8312.198742   781.502573
    6094.8430  27609.512000  8371.050221   770.419083
    6096.8590  27675.779000  8402.410478   758.863489
    6098.8780  27811.572000  8459.281095   749.836717
    6100.9750  27880.891000  8492.662401   744.338439
    6103.0750  28005.736000  8548.555714   749.370578
    6105.1750  28086.105000  8575.960257   759.931463
    6107.2770  28203.002000  8620.873608   780.020113
    6109.4590  28316.426000  8664.290687   802.637628
    6111.6430  28440.373000  8711.227581   825.785454
    6113.8270  28576.848000  8761.673097   846.461025
    6116.0130  28717.848000  8812.629041   859.666987
    6118.2800  28852.375000  8873.091872   869.401106
    6120.4700  28957.426000  8919.070011   872.664314
    6122.7400  29076.004000  8975.550138   878.455725
    6125.0110  29219.107000  9042.546657   882.776561
    6127.3630  29343.738000  9112.054137   890.626766
    6129.6390  29471.895000  9182.073930   902.006184
    6131.9950  29606.576000  9268.601441   919.913623
    6134.3520  29772.783000  9372.638568   934.349844
    6136.7900  29924.518000  9484.189456   949.316663
    6139.1510  30057.775000  9590.244299   957.811162
    6141.5940  30233.561000  9719.815130   969.833956
    6144.0380  30362.873000  9839.890463   979.387972
    6146.4840  30480.711000  9958.486053   989.469891
    6148.9320  30633.074000  10088.581855   996.079978
    6151.4620  30782.963000  10227.195396  1005.218959
    6153.9940  30911.377000  10355.319032  1013.887856
    6156.5280  31093.318000  10505.951864  1029.084879
    6159.0640  31256.785000  10646.087701  1035.811806
    6161.6030  31390.777000  10775.737980  1039.066926
    6164.2220  31554.297000  10915.903649  1040.852175
    6166.8440  31734.342000  11059.584619  1050.166201
    6169.4700  31862.912000  11183.759711  1064.006713
    6172.0960  32027.010000  11318.455339  1088.379191
    6174.8060  32207.631000  11462.667061  1120.279729
    6177.5170  32375.781000  11592.376030  1149.708743
    6180.2310  32544.455000  11729.605153  1177.666574
    6182.9480  32692.654000  11855.340064  1202.154549
    6185.6670  32878.379000  11997.583668  1223.169289
    6188.4690  33060.633000  12135.344639  1242.714673
    6191.2730  33250.410000  12278.610905  1260.789104
    6194.0810  33389.715000  12395.388626  1275.391918
    6196.8910  33619.547000  12553.677540  1293.524488
    6199.7030  33807.902000  12690.476905  1314.186525
    6202.5990  33971.781000  12825.785149  1332.374394
    6205.4980  34160.191000  12971.605291  1348.094023
    6208.3990  34361.125000  13116.936242  1371.342570
    6211.3040  34536.582000  13258.775169  1396.119511
    6214.2100  34707.570000  13398.126969  1419.425083
    6217.2020  34881.082000  13537.987452  1440.258511
    6220.1960  35067.117000  13681.359060  1455.623387
    6223.1930  35269.680000  13838.241340  1463.516163
    6226.1930  35445.770000  13978.635424  1472.936641
    6229.1960  35649.387000  14127.538134  1480.888065
    6232.2840  35841.527000  14271.950296  1486.367306
    6235.3750  35976.195000  14401.874471  1490.375900
    6238.4690  36297.387000  14601.310066  1503.912815
    6241.5650  35644.105000  14415.254347  1477.979534
    6244.7480  36453.352000  14816.710265  1513.575323
    6247.8520  36651.121000  14975.676443  1537.700801
    6251.0410  36995.418000  15197.150864  1572.354169
    6254.2330  37190.242000  15359.139669  1607.536230
    6257.4290  37358.590000  15516.636513  1647.247597
    6260.7100  37574.465000  15695.643619  1685.486418
    6263.9130  37746.863000  15857.160627  1713.256890
    6267.2020  37995.789000  16066.187974  1739.554312
    6270.4940  38185.242000  16249.728580  1760.382660
    6273.7900  38389.219000  16444.777753  1784.736821
    6277.1720  38584.727000  16643.338139  1814.623530
    6280.4750  38821.754000  16852.408085  1842.036144
    6283.8650  39000.313000  17045.988062  1868.980083
    6287.2580  39197.391000  17258.077391  1892.451897
    6290.6550  39425.000000  17481.679255  1922.451958
    6294.0560  39642.133000  17697.790783  1948.981283
    6297.5440  39861.793000  17924.414036  1983.041339
    6300.9540  40092.980000  18156.547812  2016.630918
    6304.4500  40317.691000  18385.188273  2049.744918
    6307.9500  40452.930000  18578.343529  2075.391013
    6311.5380  40713.691000  18827.007801  2107.565361
    6315.0470  40962.980000  19077.181443  2134.270564
    6318.5600  41158.797000  19297.867221  2156.502256
    6322.1610  41394.137000  19538.063796  2180.265269
    6325.7660  41609.004000  19778.768930  2201.555346
    6329.3750  41852.398000  20021.984507  2230.375362
    6333.0730  42074.316000  20268.711331  2256.724404
    6336.6910  42284.762000  20511.946751  2284.601212
    6340.3970  42517.730000  20766.694251  2319.007901
    6344.1090  42739.230000  21016.953758  2353.942151
    6347.8260  42931.254000  21252.722231  2394.407936
    6351.5460  43182.801000  21522.000499  2433.400571
    6355.2710  43426.875000  21787.791480  2475.921844
    6359.0850  43631.477000  22041.090018  2515.975093
    6362.8190  43856.602000  22303.900338  2558.554796
    6366.6450  44091.254000  22571.219941  2608.662508
    6370.4730  44281.434000  22821.050833  2649.302485
    6374.3070  44504.137000  23097.392934  2688.468636
    6378.2300  44716.367000  23352.244104  2724.165348
    6382.0750  44934.121000  23616.606724  2758.389898
    6386.0090  45159.406000  23896.480435  2794.145083
    6389.9480  45401.211000  24170.860080  2833.426563
    6393.8930  45629.547000  24453.757063  2875.239190
    6397.8420  45795.406000  24696.160357  2911.579683
    6401.8820  46008.793000  24975.075071  2950.448906
    6405.8430  46254.703000  25265.497890  2989.848584
    6409.8940  46484.141000  25564.434307  3029.777246
    6413.9500  46720.105000  25864.880568  3070.231869
    6418.0130  46936.594000  26161.836509  3114.220023
    6422.0810  47159.609000  26450.302230  3157.733694
    6426.1530  47359.148000  26734.279024  3197.776104
    6430.3180  47594.219000  27055.767647  3239.348419
    6434.4020  47769.809000  27338.766933  3272.452583
    6438.5790  47985.930000  27658.274532  3312.081829
    6442.7610  48199.574000  27972.292952  3355.240604
    6446.9490  48476.746000  28335.822561  3406.930772
    6451.2300  48697.441000  28674.862919  3466.147971
    6455.4300  48880.664000  28977.411105  3515.893183
    6459.7230  49112.414000  29341.471763  3573.169203
    6463.9340  49367.688000  29706.043831  3628.976023
    6468.2390  49563.488000  30042.124105  3683.309003
    6472.5500  49766.816000  30377.716098  3732.168069
    6476.9550  50005.668000  30755.820442  3789.561295
    6481.2780  50214.047000  31110.432350  3844.479443
    6485.6070  50447.949000  31483.556443  3901.930349
    6490.0310  50696.379000  31873.189056  3960.907588
    6494.4610  50896.336000  32241.332154  4012.414728
    6498.8980  51120.820000  32624.986460  4066.450275
    6503.3410  51332.828000  32992.150500  4116.015853
    6507.7900  51565.359000  33388.826558  4175.108349
    6512.3350  51749.422000  33765.013505  4236.731770
    6516.7970  51955.008000  34157.709456  4297.886169
    6521.3550  52213.117000  34588.914718  4369.564061
    6525.9200  52397.754000  34975.633307  4430.775512
    6530.4920  52613.918000  35368.860478  4495.512988
    6535.0690  52829.609000  35780.598675  4558.783493
    6539.6550  53048.824000  36199.847172  4622.579567
    6544.2470  53214.566000  36574.605320  4681.905363
    6548.9360  53425.832000  36995.873312  4738.759413
    6553.5410  53585.625000  37372.657038  4794.144809
    6558.2440  53772.945000  37770.945127  4858.055037
    6562.9540  53996.789000  38200.747437  4924.496726
    6567.6710  54191.160000  38617.057983  4990.470009
    6572.3950  54465.059000  39082.878333  5065.969225
    6577.2180  54631.480000  39499.210066  5134.993992
    6581.9560  54806.430000  39903.052425  5203.553840
    6586.7920  55037.902000  40356.407300  5273.641840
    6591.5460  55251.906000  40788.269897  5349.256277
    6596.3970  55414.430000  41200.641604  5416.396972
    6601.2570  55630.484000  41657.524993  5490.070102
    6606.1250  55841.063000  42110.920224  5567.277163
    6611.0910  56027.168000  42561.824625  5638.007461
    6615.9730  56246.797000  43029.236241  5720.268800
    6620.9550  56444.953000  43477.165970  5785.055070
    6625.8530  56640.637000  43952.600671  5858.372272
    6630.8500  56845.844000  44419.551111  5943.223797
    6635.8550  57038.578000  44902.009373  6021.597237
    6640.8690  57239.836000  45373.974399  6102.501015
    6645.8910  57406.625000  45833.451874  6178.936781
    6650.9190  57553.934000  46285.442314  6262.900965
    6655.9570  57775.773000  46791.943261  6344.390493
    6661.0960  57985.137000  47293.947103  6429.413488
    6666.1500  58127.027000  47737.470587  6502.961161
    6671.3050  58339.441000  48256.502359  6591.042845
    6676.4690  58508.383000  48751.040613  6669.651056
    6681.6420  58636.848000  49211.089991  6756.783779
    6686.8220  58804.844000  49700.651043  6839.448040
    6692.0110  58846.363000  50101.724598  6907.649568
    6697.3030  58665.406000  50320.307210  6955.367874
    6702.5090  56378.977000  48701.398231  6746.620689
    6707.7240  60775.074000  52874.000695  7341.401304
    6713.0420  60632.699000  53164.114805  7392.711889
    6718.3690  60473.848000  53422.740486  7452.551874
    6723.7050  60536.523000  53869.872444  7526.923321
    6729.0490  60563.723000  54289.518751  7606.819773
    6734.4030  60540.449000  54673.674343  7679.245654
    6739.7660  60524.703000  55073.340233  7765.204216
    6745.1370  61031.480000  55938.515868  7912.684911
    6750.6140  60119.785000  55512.202902  7871.698579
    6756.0030  57972.617000  53938.401817  7668.236663
    6761.4980  60924.973000  57121.109185  8144.311730
    6766.9060  61848.855000  58411.328147  8350.912766
    6772.4200  60381.262000  57439.055136  8231.040834
    6777.9430  62345.195000  59764.292917  8590.701301
    6783.4760  62303.656000  60173.042791  8667.890560
    6789.0180  62161.641000  60478.300745  8735.600043
    6794.5690  62115.152000  60886.069989  8811.850054
    6800.2280  61845.191000  61063.352035  8867.623929
    6805.7990  59263.754000  58926.144999  8583.921669
    6811.4770  64550.844000  64689.444981  9444.759622
    6817.0670  63694.461000  64297.257990  9412.117796
    6822.7650  63570.602000  64640.578309  9493.006416
    6828.4730  63556.270000  65098.413925  9586.426438
    6834.1900  63630.461000  65656.757799  9696.369453
    6839.9180  63781.184000  66303.608677  9820.846549
    6845.6560  63805.426000  66836.976897  9911.854586
    6851.4050  63946.199000  67465.851705  10029.387860
    6857.1630  64041.496000  68066.233845  10144.455076
    6863.0310  64157.320000  68695.124732  10269.047072
    6868.8100  64276.668000  69337.531093  10388.166625
    6874.6980  64313.543000  69902.452968  10497.821308
    6880.4980  64462.941000  70576.874949  10624.998148
    6886.4070  64530.871000  71184.813310  10747.707752
    6892.3270  64693.320000  71903.256116  10888.939512
    6898.2580  64783.301000  72550.216939  11010.715880
    6904.2000  64840.809000  73157.684532  11132.003673
    6910.1520  64840.836000  73718.662529  11249.829692
    6916.1150  64955.391000  74393.155525  11384.183070
    6922.0890  64954.477000  74979.157183  11499.070094
    6928.1750  65028.082000  75606.662482  11638.474853
    6934.1710  65146.219000  76315.691052  11774.422176
    6940.2790  65176.875000  76941.218030  11898.885355
    6946.2960  65235.063000  77581.259789  12027.887362
    6952.4280  65314.777000  78244.810263  12176.410382
    6958.5690  65298.012000  78855.872833  12305.468926
    6964.6200  65395.777000  79566.447050  12451.056572
    6970.7850  65431.066000  80177.534804  12580.164921
    6976.9600  65405.883000  80754.122105  12700.813018
    6983.1470  65537.227000  81521.226349  12856.974572
    6989.3470  65610.094000  82229.840234  12988.680613
    6995.6610  65604.484000  82844.971439  13115.910658
    7001.8820  65722.406000  83624.605618  13272.666928
    7008.1160  65760.852000  84292.754040  13409.962580
    7014.4650  65785.820000  84936.406154  13546.779091
    7020.7220  65825.320000  85604.569758  13690.123586
    7027.0960  65821.344000  86230.251591  13828.989298
    7033.3760  65929.891000  86982.436578  13988.397274
    7039.7740  65996.969000  87711.131358  14130.333755
    7046.1830  66033.570000  88410.341587  14278.786140
    7052.6040  66070.695000  89097.066044  14425.787522
    7059.0390  66112.344000  89798.284968  14580.308373
    7065.4840  66125.523000  90473.030377  14733.352472
    7071.9420  66186.227000  91180.284040  14894.927071
    7078.4130  66223.461000  91875.040278  15048.034670
    7084.8960  66236.219000  92551.313212  15194.677896
    7091.3910  66231.500000  93198.094909  15335.835520
    7097.8990  66225.305000  93863.391251  15484.529685
    7104.5260  66247.641000  94558.184752  15638.742932
    7111.0590  66236.500000  95139.503324  15784.497232

