# XDI/1.0
# Column.1: energy eV
# Column.2: i0
# Column.3: itrans
# Column.4: irefer
# Beamline.name: SSRL 2-3
# Beamline.notes: vert slits = 0.6mm
# Detector.I0: N2 15cm
# Detector.I1: N2 30cm
# Detector.I2: N2 15cm
# Element.edge: K
# Element.symbol: Cr
# Mono.d_spacing: 3.13550
# Mono.name: Si(111)
# Mono.notes: unfocused, detuned 75%, clockwise at E=5990eV
# Sample.formula: Na2CrO4
# Sample.name: Na2CrO4
# Sample.prep: powder on tape (4 layers)
# Sample.reference: Cr foil
# Sample.temperature: room temp
# Scan.start_time: 1997-04-17 23:39:33
# ///
#    Note: mono d_spacing is nominal!
#     exafs to K16
#     396  E XMU XMUR I0
#-------------
#   energy   i0   itrans  irefer
    5759.9890  25043.900000  18259.499861  2316.699364
    5769.9800  25033.900000  18578.500152  2372.701089
    5780.0070  25013.900000  18894.499923  2428.699358
    5790.0030  24987.900000  19216.500437  2485.699994
    5799.9650  24936.900000  19511.499978  2539.700179
    5810.0340  24916.900000  19850.499849  2599.700349
    5820.0000  24892.900000  20175.500509  2657.699828
    5830.0020  24846.900000  20498.499662  2717.699353
    5839.9710  24800.900000  20799.499893  2773.699373
    5849.9750  24765.900000  21141.499440  2838.699166
    5860.0160  24720.900000  21465.500956  2899.699293
    5870.0220  24691.900000  21802.500273  2963.700495
    5879.9930  24660.900000  22135.500860  3030.700235
    5890.0000  24623.900000  22473.499971  3091.699179
    5899.9710  24587.900000  22827.500057  3157.700118
    5909.9780  24524.900000  23141.499896  3221.701184
    5920.0210  24498.900000  23488.499974  3289.698564
    5930.0260  24453.900000  23819.499987  3353.701202
    5939.9950  24407.900000  24155.500071  3419.700932
    5949.9990  24362.900000  24498.500005  3487.701389
    5959.9650  24307.900000  24818.499940  3548.700004
    5969.9670  24248.900000  25136.500061  3611.701444
    5970.4870  24223.900000  25121.499897  3610.701407
    5971.0060  24189.900000  25104.499943  3610.701630
    5971.5260  24081.900000  25003.499898  3599.701088
    5971.9720  23931.900000  24868.500116  3580.698693
    5972.4920  23868.900000  24825.499891  3576.699137
    5973.0120  23983.900000  24961.500101  3596.699581
    5973.5320  24149.900000  25156.499921  3621.699205
    5973.9780  24226.900000  25256.499943  3637.699754
    5974.4980  24255.900000  25303.500017  3644.698794
    5975.0190  24281.900000  25343.499998  3650.701303
    5975.4640  24276.900000  25357.499916  3653.700687
    5975.9850  24257.900000  25348.500021  3656.701668
    5976.5060  24249.900000  25359.500010  3658.698246
    5977.0260  24276.900000  25402.499913  3661.700258
    5977.4730  24270.900000  25418.499911  3667.701794
    5977.9940  24243.900000  25405.500085  3664.700780
    5978.5150  24255.900000  25443.499978  3671.698299
    5979.0370  24280.900000  25488.500076  3679.700537
    5979.4830  24283.900000  25503.500043  3682.698234
    5980.0050  24254.900000  25487.500075  3680.700690
    5980.5260  24257.900000  25506.499895  3682.700511
    5980.9730  24279.900000  25545.500043  3688.700314
    5981.4950  24268.900000  25548.499968  3690.701710
    5982.0160  24260.900000  25564.500015  3693.700019
    5982.4630  24270.900000  25586.500083  3696.701265
    5982.9860  24297.900000  25637.500089  3703.699285
    5983.5070  24293.900000  25648.499991  3702.699285
    5984.0300  24282.900000  25658.499954  3703.698441
    5984.4770  24264.900000  25643.500089  3700.700521
    5984.9990  24242.900000  25645.500087  3701.699805
    5985.5210  24086.900000  25487.499958  3676.698248
    5985.9700  23785.900000  25182.499983  3631.701634
    5986.4920  23006.900000  24361.500089  3509.701605
    5987.0150  21509.900000  22781.500027  3281.700733
    5987.4630  21005.900000  22261.500036  3205.700819
    5987.9860  22066.900000  23406.499922  3360.701588
    5988.5090  22960.900000  24363.499966  3490.699372
    5989.0320  23412.900000  24838.500093  3538.701573
    5989.4800  23639.900000  25084.499922  3544.698555
    5990.0030  23797.900000  25225.500097  3498.699722
    5990.5260  23877.900000  25273.499975  3402.700615
    5990.9750  23930.900000  25279.500008  3320.700620
    5991.4990  23966.900000  25229.499924  3236.698866
    5992.0210  23967.900000  25085.499878  3156.699391
    5992.4710  23975.900000  24899.499906  3090.700361
    5992.9950  24006.900000  24521.499884  2998.701252
    5993.5180  23997.900000  23626.500073  2850.701107
    5993.9670  23989.900000  22218.500072  2651.700887
    5994.4920  23995.900000  20337.500201  2404.700786
    5995.0160  24016.900000  20056.499167  2351.699479
    5995.4650  24009.900000  21422.499437  2501.700612
    5995.9890  23992.900000  23257.500060  2708.699589
    5996.5140  23999.900000  24321.500021  2831.701404
    5996.9630  24014.900000  24715.500095  2879.701322
    5997.4880  23995.900000  24911.499955  2897.700648
    5998.0120  23992.900000  24994.500065  2889.700326
    5998.5380  23993.900000  24978.499913  2854.699122
    5998.9870  23997.900000  24914.500080  2804.701080
    5999.5130  23983.900000  24778.500006  2733.700927
    6000.0370  23946.900000  24572.499943  2650.700459
    6000.4870  23911.900000  24361.499895  2581.699784
    6001.0130  23821.900000  24056.500008  2497.699806
    6001.4620  23687.900000  23766.500003  2428.699736
    6001.9880  23603.900000  23533.499992  2363.699408
    6002.5130  23702.900000  23469.499993  2322.700937
    6002.9640  23848.900000  23463.500058  2296.699345
    6003.4900  23950.900000  23372.500090  2259.700136
    6004.0160  23966.900000  23150.500074  2215.700002
    6004.4660  23981.900000  22936.500023  2174.699576
    6004.9930  23988.900000  22673.500039  2129.699401
    6005.5180  23971.900000  22337.500013  2076.699555
    6005.9700  23955.900000  22027.499941  2033.699748
    6006.4960  23957.900000  21656.499632  1982.700141
    6007.0220  23963.900000  21255.500975  1926.700070
    6007.4730  23953.900000  20893.500920  1877.700988
    6008.0000  23949.900000  20470.500473  1819.700357
    6008.5260  23961.900000  20059.500239  1765.699394
    6008.9780  23968.900000  19752.499824  1724.699887
    6009.5040  23953.900000  19422.499262  1679.699906
    6010.0320  23941.900000  19142.499388  1637.700235
    6010.9360  23972.664000  18744.256419  1588.465381
    6011.8390  23994.951000  18463.520734  1574.758509
    6012.8180  23979.768000  18311.296689  1599.581728
    6013.7980  23982.107000  18275.584901  1636.932413
    6014.7780  23998.975000  18264.380112  1670.811975
    6015.7580  24017.367000  18290.688289  1687.221501
    6016.8150  24021.285000  18287.506327  1686.160604
    6017.7960  24022.730000  18256.833814  1671.627103
    6018.9290  24032.701000  18209.673149  1643.624632
    6019.9860  24065.197000  18203.021356  1628.148678
    6021.1200  24079.219000  18190.880305  1617.203441
    6022.1770  24089.768000  18193.252544  1621.785635
    6023.3880  24123.842000  18205.132250  1634.896576
    6024.5220  24155.441000  18200.523455  1643.539840
    6025.7330  24184.566000  18194.423774  1644.708494
    6026.8690  24218.219000  18217.835762  1640.408180
    6028.1570  24237.396000  18273.757782  1628.634656
    6029.3690  24273.100000  18368.191417  1624.391755
    6030.5820  24310.330000  18481.134646  1624.677709
    6031.8720  24357.086000  18598.588921  1626.492268
    6033.1610  24380.367000  18680.551899  1628.836534
    6034.5280  24416.174000  18750.024921  1632.709789
    6035.8190  24470.508000  18820.009470  1637.110238
    6037.1870  24528.367000  18878.505212  1641.041308
    6038.5550  24561.752000  18921.511250  1637.501224
    6040.0000  24596.664000  18979.026936  1636.489705
    6041.3700  24611.102000  19082.054567  1641.007433
    6042.8160  24686.064000  19290.589260  1662.054311
    6044.2640  24765.553000  19506.639517  1689.630550
    6045.7120  24805.568000  19694.195430  1716.734507
    6047.2370  24843.109000  19918.264209  1739.368489
    6048.7630  24905.176000  20101.844024  1764.530331
    6050.2890  24978.768000  20211.931211  1784.221319
    6051.8160  25057.887000  20358.530806  1817.442019
    6053.4220  25105.531000  20543.643625  1859.191248
    6054.9510  25144.701000  20714.262621  1894.468792
    6056.5570  25216.398000  20909.395370  1932.277960
    6058.2410  25305.621000  21103.034493  1967.612433
    6059.8490  25363.369000  21255.185046  1996.478478
    6061.5350  25403.643000  21389.847401  2015.871058
    6063.2220  25436.443000  21511.021023  2029.794202
    6064.9100  25510.770000  21654.704222  2036.247628
    6066.6760  25581.621000  21794.897090  2032.228276
    6068.3650  25679.000000  21952.601179  2027.737495
    6070.1330  25755.904000  22068.816244  2011.777345
    6071.9020  25846.332000  22200.541830  1996.344375
    6073.7490  25922.289000  22309.773986  1999.441472
    6075.5210  26010.770000  22436.519879  2023.067620
    6077.3690  26106.777000  22560.776284  2060.222189
    6079.2200  26213.313000  22691.545530  2101.905704
    6081.1490  26308.371000  22815.820514  2148.118145
    6083.0020  26408.957000  22954.608740  2191.860514
    6084.9340  26466.068000  23055.905942  2226.130685
    6086.8660  26597.705000  23235.714983  2254.931361
    6088.8000  26708.867000  23403.032492  2261.260967
    6090.8130  26822.557000  23589.863631  2242.116112
    6092.8270  26933.771000  23767.203514  2207.502148
    6094.8430  27049.512000  23953.052397  2177.417985
    6096.8590  27131.779000  24107.413268  2142.864312
    6098.8780  27223.572000  24259.282209  2120.835926
    6100.9750  27361.891000  24432.665962  2115.338836
    6103.0750  27483.736000  24606.556001  2141.370215
    6105.1750  27615.105000  24748.958458  2186.931469
    6107.2770  27751.002000  24913.871773  2248.019818
    6109.4590  27861.426000  25049.294201  2315.638945
    6111.6430  27976.373000  25196.228800  2381.785300
    6113.8270  28095.848000  25346.671190  2439.461718
    6116.0130  28241.848000  25536.626363  2477.667887
    6118.2800  28368.375000  25712.092033  2506.399819
    6120.4700  28496.426000  25896.066016  2517.662939
    6122.7400  28641.004000  26096.553018  2529.455943
    6125.0110  28779.107000  26299.549046  2547.775925
    6127.3630  28921.738000  26512.057044  2576.628116
    6129.6390  29051.895000  26731.071985  2615.006632
    6131.9950  29178.576000  26957.600001  2655.915088
    6134.3520  29333.783000  27214.637046  2697.350393
    6136.7900  29461.518000  27461.185937  2729.314796
    6139.1510  29612.775000  27723.244032  2751.810878
    6141.5940  29735.561000  27976.814110  2775.833603
    6144.0380  29895.873000  28274.894877  2798.387348
    6146.4840  30058.711000  28554.484027  2817.469052
    6148.9320  30209.074000  28836.584116  2830.079669
    6151.4620  30354.963000  29116.195032  2842.220320
    6153.9940  30521.377000  29418.315994  2864.888620
    6156.5280  30685.318000  29723.949138  2890.085508
    6159.0640  30839.785000  30014.089974  2902.812043
    6161.6030  30983.777000  30300.742129  2903.068279
    6164.2220  31147.297000  30622.905901  2899.850801
    6166.8440  31320.342000  30947.579850  2920.166983
    6169.4700  31468.912000  31252.763987  2963.007559
    6172.0960  31640.010000  31580.458991  3031.378732
    6174.8060  31818.631000  31918.662010  3104.280156
    6177.5170  31984.781000  32244.379014  3177.709753
    6180.2310  32144.455000  32566.603899  3247.668463
    6182.9480  32311.654000  32885.340143  3311.154666
    6185.6670  32427.381000  33171.586079  3360.170338
    6188.4690  32593.633000  33515.343957  3402.714048
    6191.2730  32787.410000  33867.613042  3448.789122
    6194.0810  32966.715000  34201.391011  3492.393494
    6196.8910  33135.547000  34531.680002  3540.525504
    6199.7030  33324.902000  34875.476925  3587.185513
    6202.5990  33493.781000  35213.785160  3632.374729
    6205.4980  33683.191000  35546.604899  3679.094454
    6208.3990  33889.125000  35911.934101  3737.342011
    6211.3040  34073.582000  36243.776820  3797.119271
    6214.2100  34253.570000  36579.125013  3855.426833
    6217.2020  34438.082000  36917.987816  3900.258788
    6220.1960  34634.117000  37278.358855  3931.621620
    6223.1930  34801.680000  37602.241819  3950.517850
    6226.1930  35022.770000  37998.637028  3972.935696
    6229.1960  35220.387000  38355.539032  3987.888732
    6232.2840  35434.527000  38738.953097  4001.369325
    6235.3750  35388.195000  38847.875085  3986.375332
    6238.4690  35910.387000  39587.308922  4037.911428
    6241.5650  35096.105000  38854.253486  3947.978026
    6244.7480  36039.352000  40063.710622  4066.574312
    6247.8520  36344.121000  40574.677201  4135.698168
    6251.0410  36577.418000  41028.151599  4219.355771
    6254.2330  36779.242000  41432.140074  4317.536176
    6257.4290  37000.590000  41886.637353  4430.244872
    6260.7100  37195.465000  42311.645067  4525.487677
    6263.9130  37392.863000  42723.159803  4593.256076
    6267.2020  37615.789000  43214.188657  4651.556443
    6270.4940  37848.242000  43692.725875  4714.381038
    6273.7900  38048.219000  44136.776818  4771.736937
    6277.1720  38255.727000  44601.334253  4836.623119
    6280.4750  38481.754000  45086.407122  4904.037311
    6283.8650  38651.313000  45524.987270  4963.977556
    6287.2580  38911.391000  46077.079502  5027.453711
    6290.6550  39110.000000  46537.679150  5080.452278
    6294.0560  39357.133000  47074.790730  5149.984109
    6297.5440  39565.793000  47574.415718  5226.041624
    6300.9540  39781.980000  48082.546178  5307.629140
    6304.4500  39958.691000  48560.191751  5378.745107
    6307.9500  40217.930000  49123.341858  5456.389548
    6311.5380  40426.691000  49644.009823  5523.566381
    6315.0470  40681.980000  50223.183488  5588.269913
    6318.5600  40896.797000  50745.865520  5638.500419
    6322.1610  41129.137000  51299.063660  5685.263634
    6325.7660  41358.004000  51856.768690  5736.552785
    6329.3750  41584.398000  52400.982903  5795.375946
    6333.0730  41827.316000  52975.710652  5859.724090
    6336.6910  42047.762000  53533.951636  5928.599794
    6340.3970  42297.730000  54116.694289  6003.008260
    6344.1090  42534.230000  54698.952729  6088.943366
    6347.8260  42767.254000  55253.722644  6177.407693
    6351.5460  42975.801000  55804.002145  6269.399583
    6355.2710  43206.875000  56377.786588  6355.923585
    6359.0850  43472.477000  57006.091195  6458.971698
    6362.8190  43697.602000  57577.900745  6562.553803
    6366.6450  43921.254000  58185.218726  6671.664298
    6370.4730  44152.434000  58758.049463  6768.301409
    6374.3070  44417.137000  59416.392924  6869.471423
    6378.2300  44656.367000  60016.246174  6951.165165
    6382.0750  44867.121000  60587.606248  7026.392068
    6386.0090  45110.406000  61232.479015  7116.142192
    6389.9480  45353.211000  61867.863626  7204.428302
    6393.8930  45576.547000  62505.756971  7297.236129
    6397.8420  45850.406000  63202.158473  7392.577480
    6401.8820  46079.793000  63842.072985  7481.448509
    6405.8430  46275.703000  64430.501717  7563.848716
    6409.8940  46569.141000  65195.432414  7662.776699
    6413.9500  46808.105000  65853.881544  7765.232294
    6418.0130  47024.594000  66518.835053  7868.222203
    6422.0810  47257.609000  67186.308083  7973.730715
    6426.1530  47507.148000  67898.278714  8074.780483
    6430.3180  47745.219000  68622.765361  8171.351654
    6434.4020  47988.809000  69350.769174  8259.451970
    6438.5790  48191.930000  70042.274392  8349.085231
    6442.7610  48450.574000  70789.294776  8446.243493
    6446.9490  48673.746000  71519.818150  8555.929815
    6451.2300  48945.441000  72319.856279  8687.148319
    6455.4300  49169.664000  73063.413925  8813.897596
    6459.7230  49395.414000  73820.471584  8941.166717
    6463.9340  49654.688000  74624.047438  9066.976048
    6468.2390  49907.488000  75432.125478  9187.310621
    6472.5500  50121.816000  76175.718908  9301.165942
    6476.9550  50379.668000  76989.818126  9428.558116
    6481.2780  50591.047000  77768.426820  9552.477299
    6485.6070  50857.949000  78606.558136  9687.933410
    6490.0310  51091.379000  79429.185363  9814.912125
    6494.4610  51370.336000  80324.339750  9943.416613
    6498.8980  51602.820000  81166.980644  10061.452341
    6503.3410  51814.828000  81928.151596  10177.014155
    6507.7900  52098.359000  82862.826775  10322.113660
    6512.3350  52320.422000  83676.014630  10457.729529
    6516.7970  52542.008000  84471.711404  10595.884829
    6521.3550  52782.117000  85342.915469  10740.562265
    6525.9200  53012.754000  86198.633607  10878.771551
    6530.4920  53250.918000  87056.857866  11023.511974
    6535.0690  53484.609000  87927.598390  11160.778697
    6539.6550  53698.824000  88760.843559  11291.583236
    6544.2470  53911.566000  89633.607867  11423.907830
    6548.9360  54131.832000  90496.873639  11551.754205
    6553.5410  54312.625000  91279.653042  11669.141799
    6558.2440  54555.945000  92188.942044  11810.053839
    6562.9540  54755.789000  93022.741756  11943.497622
    6567.6710  55015.160000  93987.057218  12102.464186
    6572.3950  55266.059000  94933.871410  12258.965646
    6577.2180  55509.480000  95867.211172  12414.001850
    6581.9560  55737.430000  96807.058892  12572.550604
    6586.7920  55998.902000  97808.402003  12738.634769
    6591.5460  56204.906000  98712.269372  12893.254253
    6596.3970  56449.430000  99652.645389  13055.396760
    6601.2570  56691.484000  100680.527080  13224.079938
    6606.1250  56925.063000  101637.922522  13383.274004
    6611.0910  57142.168000  102613.831950  13544.001262
    6615.9730  57373.797000  103606.244265  13709.261151
    6620.9550  57612.953000  104633.160240  13874.054607
    6625.8530  57779.637000  105499.605394  14023.369845
    6630.8500  58039.844000  106593.543271  14207.215086
    6635.8550  58279.578000  107615.010458  14386.598887
    6640.8690  58505.836000  108642.981789  14571.507924
    6645.8910  58662.625000  109542.457294  14732.931289
    6650.9190  58863.934000  110515.433085  14902.905250
    6655.9570  59098.773000  111582.939096  15089.394752
    6661.0960  59319.137000  112636.944855  15274.408317
    6666.1500  59568.027000  113725.468200  15460.963609
    6671.3050  59697.441000  114612.497912  15620.042342
    6676.4690  59933.383000  115696.034782  15806.644065
    6681.6420  60100.848000  116700.083086  15981.778848
    6686.8220  60252.844000  117634.642901  16148.458151
    6692.0110  60306.363000  118389.723102  16291.653485
    6697.3030  60171.406000  118801.300767  16387.360821
    6702.5090  57405.977000  114008.399650  15758.613849
    6707.7240  62569.074000  124906.996263  17308.408614
    6713.0420  62109.699000  124721.114449  17322.706586
    6718.3690  62051.848000  125280.746846  17443.554201
    6723.7050  62125.523000  126156.878870  17612.928441
    6729.0490  62197.723000  127026.520991  17777.824950
    6734.4030  62201.449000  127713.668750  17923.250763
    6739.7660  62887.703000  129882.350403  18271.199893
    6745.1370  62713.480000  130249.509730  18378.691384
    6750.6140  61844.785000  129149.206872  18279.704092
    6756.0030  62290.617000  130893.393851  18572.243933
    6761.4980  62432.973000  131948.111324  18767.314180
    6766.9060  63647.855000  135230.323474  19284.919637
    6772.4200  62352.262000  133262.044678  19058.047447
    6777.9430  64201.195000  137978.299698  19786.708496
    6783.4760  64258.656000  138884.053623  19968.887522
    6789.0180  64256.641000  139689.301351  20135.605791
    6794.5690  64299.152000  140591.081125  20327.843413
    6800.2280  63957.191000  140618.362090  20381.621113
    6805.7990  61681.754000  136588.146204  19845.934319
    6811.4770  66506.844000  147907.452860  21546.766517
    6817.0670  66023.461000  147696.271955  21565.114693
    6822.7650  65971.602000  148434.573209  21735.008961
    6828.4730  66097.273000  149584.401242  21960.421058
    6834.1900  66186.461000  150644.751420  22176.372613
    6839.9180  66329.180000  151847.605274  22404.849277
    6845.6560  66505.430000  153126.962641  22652.843808
    6851.4050  66657.195000  154360.842209  22894.392070
    6857.1630  66792.492000  155580.234963  23131.459613
    6863.0310  66924.320000  156800.128703  23380.046121
    6868.8100  67055.664000  158035.529884  23619.174960
    6874.6980  67213.547000  159333.456920  23879.831192
    6880.4980  67380.945000  160596.878175  24133.003966
    6886.4070  67471.867000  161780.815086  24378.715251
    6892.3270  67657.320000  163178.264876  24663.939873
    6898.2580  67817.305000  164496.221176  24924.707944
    6904.2000  68001.805000  165861.690108  25198.998431
    6910.1520  68085.836000  167053.664193  25449.831020
    6916.1150  68243.391000  168381.155815  25730.194723
    6922.0890  68181.477000  169189.151675  25924.055715
    6928.1750  68261.078000  170427.678874  26196.479615
    6934.1710  68429.219000  171802.680483  26478.408089
    6940.2790  68517.875000  173024.215749  26748.878845
    6946.2960  68652.063000  174388.258265  27028.886994
    6952.4280  68758.773000  175632.814712  27294.399529
    6958.5690  68885.016000  176954.879105  27578.480588
    6964.6200  69032.773000  178330.445181  27861.039044
    6970.7850  69124.070000  179589.538604  28120.164191
    6976.9600  69291.883000  181048.123372  28420.817037
    6983.1470  69391.227000  182317.240148  28697.994648
    6989.3470  69487.094000  183630.839917  28970.684445
    6995.6610  69592.484000  184982.971150  29268.907439
    7001.8820  69658.406000  186186.615915  29531.676948
    7008.1160  69783.852000  187627.748041  29830.964651
    7014.4650  69900.820000  188970.398333  30133.767301
    7020.7220  70002.320000  190293.646000  30419.120799
    7027.0960  70087.344000  191643.185781  30718.996313
    7033.3760  70202.891000  193007.392739  31011.388020
    7039.7740  70284.969000  194326.155966  31304.346813
    7046.1830  70362.570000  195615.391986  31588.794259
    7052.6040  70460.695000  196990.998858  31890.783088
    7059.0390  70572.344000  198368.287275  32200.286168
    7065.4840  70684.523000  199766.990139  32512.337674
    7071.9420  70749.227000  201076.334716  32813.946089
    7078.4130  70894.461000  202576.036786  33152.041763
    7084.8960  70938.219000  203561.331610  33399.680809
    7091.3910  71055.500000  205296.086567  33762.822187
    7097.8990  71067.305000  206471.292994  34046.505055
    7104.5260  71095.641000  207680.123237  34337.739522
    7111.0590  71179.500000  209122.427006  34666.501832

