# XDI/1.0
# Column.1: energy eV
# Column.2: i0
# Column.3: itrans
# Column.4: irefer
# Beamline.name: SSRL 2-3
# Beamline.notes: vert slits = 0.6mm
# Detector.I0: N2 15cm
# Detector.I1: N2 30cm
# Detector.I2: N2 15cm
# Element.edge: K
# Element.symbol: Cr
# Mono.d_spacing: 3.13550
# Mono.name: Si(111)
# Mono.notes: unfocused, detuned 75%, clockwise at E=5990eV
# Sample.formula: Na2CrO4
# Sample.name: Na2CrO4
# Sample.prep: powder on tape (4 layers)
# Sample.reference: Cr foil
# Sample.temperature: 15K
# Scan.start_time: 1997-04-18 15:04:31
# ///
#    Note: mono d_spacing is nominal!
#     exafs to K16
#     396  E XMU XMUR I0
#-------------
#   energy   i0   itrans  irefer
    5759.9890  232308.800000  11958.705670  1517.300124
    5769.9800  231770.800000  12161.703441  1553.300392
    5780.0070  231444.800000  12386.701038  1591.300172
    5790.0030  231262.800000  12616.704958  1629.300410
    5799.9650  231465.800000  12873.695621  1675.299793
    5810.0340  231193.800000  13113.697831  1716.299157
    5820.0000  230650.800000  13330.703100  1756.300975
    5830.0020  230540.800000  13581.693955  1799.298476
    5839.9710  230009.800000  13805.705058  1841.300134
    5849.9750  229830.800000  14065.702481  1887.300283
    5860.0160  229543.800000  14307.700101  1933.300916
    5870.0220  228973.800000  14541.702943  1976.300350
    5879.9930  229057.800000  14817.699427  2025.299060
    5890.0000  228628.800000  15061.694425  2070.298351
    5899.9710  227771.800000  15279.701536  2114.300977
    5909.9780  226837.800000  15498.701165  2157.299536
    5920.0210  226796.800000  15776.704644  2209.301633
    5930.0260  226495.800000  16034.704455  2257.299984
    5939.9950  226381.800000  16300.698414  2306.298721
    5949.9990  225962.800000  16554.705538  2356.299509
    5959.9650  225255.800000  16782.700862  2401.300932
    5969.9670  224960.800000  17044.697611  2449.299744
    5970.4870  224951.800000  17058.696921  2452.299503
    5971.0060  224753.800000  17059.693585  2451.297757
    5971.5260  224384.800000  17045.707886  2451.299851
    5971.9720  223178.800000  16966.693967  2441.298925
    5972.4920  221612.800000  16862.693809  2425.298755
    5973.0120  222198.800000  16909.700928  2434.300574
    5973.5320  224223.800000  17075.704440  2457.301165
    5973.9780  225894.800000  17220.704402  2478.301395
    5974.4980  226211.800000  17264.696099  2485.298389
    5975.0190  226159.800000  17267.702153  2488.300206
    5975.4640  226623.800000  17312.700653  2492.300985
    5975.9850  226774.800000  17341.707783  2498.299885
    5976.5060  226637.800000  17350.705154  2501.301380
    5977.0260  226355.800000  17342.707440  2501.301253
    5977.4730  226178.800000  17345.703467  2501.300601
    5977.9940  226263.800000  17362.706044  2503.301787
    5978.5150  226239.800000  17369.703296  2505.300027
    5979.0370  226243.800000  17386.693615  2508.299865
    5979.4830  226693.800000  17430.703292  2516.299093
    5980.0050  226579.800000  17433.701500  2515.300302
    5980.5260  226474.800000  17442.707979  2517.301968
    5980.9730  226288.800000  17439.697264  2517.300405
    5981.4950  226351.800000  17459.701013  2519.300859
    5982.0160  226496.800000  17486.703931  2523.300626
    5982.4630  226789.800000  17517.696478  2526.299534
    5982.9860  227376.800000  17581.699382  2536.300576
    5983.5070  228612.800000  17691.702472  2549.299824
    5984.0300  229101.800000  17737.702276  2556.301395
    5984.4770  229266.800000  17766.708390  2559.301554
    5984.9990  229141.800000  17761.692401  2558.297571
    5985.5210  228604.800000  17728.699170  2555.300294
    5985.9700  227026.800000  17624.695504  2538.298748
    5986.4920  221319.800000  17189.705967  2474.300462
    5987.0150  208635.800000  16207.695303  2332.298234
    5987.4630  199785.800000  15520.702728  2231.300931
    5987.9860  206388.800000  16043.692290  2302.298032
    5988.5090  216691.800000  16858.703767  2412.301009
    5989.0320  222541.800000  17319.706359  2467.301268
    5989.4800  225287.800000  17523.707807  2482.300363
    5990.0030  226343.800000  17593.703499  2456.299827
    5990.5260  225933.800000  17547.702611  2381.301141
    5990.9750  226198.800000  17543.706097  2321.299733
    5991.4990  227062.800000  17550.696420  2265.298710
    5992.0210  228539.800000  17572.696717  2220.300117
    5992.4710  229093.800000  17497.701452  2178.299500
    5992.9950  229413.800000  17286.698965  2119.298971
    5993.5180  229438.800000  16788.704805  2030.299517
    5993.9670  229366.800000  15953.695080  1910.300327
    5994.4920  229169.800000  14490.702161  1717.299869
    5995.0160  229388.800000  13731.704832  1612.301047
    5995.4650  229447.800000  14424.693331  1685.299938
    5995.9890  229320.800000  15876.704302  1849.301308
    5996.5140  229271.800000  16846.706863  1960.301326
    5996.9630  229261.800000  17217.694104  2003.299522
    5997.4880  229317.800000  17432.701073  2026.300698
    5998.0120  229417.800000  17526.706361  2030.300467
    5998.5380  229325.800000  17538.697053  2012.298699
    5998.9870  229148.800000  17494.692937  1980.298467
    5999.5130  229067.800000  17413.696114  1931.299379
    6000.0370  228991.800000  17306.708399  1879.301556
    6000.4870  228931.800000  17182.701356  1832.300246
    6001.0130  228072.800000  16957.697766  1770.299739
    6001.4620  226442.800000  16718.708710  1717.300145
    6001.9880  225175.800000  16514.708870  1667.301465
    6002.5130  225989.800000  16473.694987  1637.298890
    6002.9640  227837.800000  16512.703145  1622.300125
    6003.4900  229001.800000  16467.699624  1597.300256
    6004.0160  229010.800000  16314.693835  1566.300022
    6004.4660  228967.800000  16163.706385  1536.300698
    6004.9930  229057.800000  15982.707771  1506.300091
    6005.5180  229078.800000  15764.696624  1469.299930
    6005.9700  229247.800000  15570.693328  1440.298688
    6006.4960  229018.800000  15289.695370  1401.299606
    6007.0220  228694.800000  14984.695250  1361.298963
    6007.4730  228900.800000  14735.694119  1328.299725
    6008.0000  228934.800000  14413.701494  1286.300472
    6008.5260  228823.800000  14081.702718  1245.299764
    6008.9780  228669.800000  13820.694103  1211.299853
    6009.5040  228747.800000  13582.702207  1179.300052
    6010.0320  228710.800000  13384.700800  1151.299522
    6010.9360  228940.560000  13095.457398  1111.064324
    6011.8390  229018.840000  12833.722424  1094.357323
    6012.8180  228821.640000  12712.513654  1107.180657
    6013.7980  228838.950000  12715.814831  1135.534518
    6014.7780  228778.800000  12711.620789  1159.415035
    6015.7580  229002.160000  12715.941415  1173.825926
    6016.8150  228541.030000  12691.782751  1171.764528
    6017.7960  229132.420000  12699.137652  1165.234192
    6018.9290  229133.340000  12658.995952  1148.232846
    6019.9860  229358.780000  12636.386914  1132.760419
    6021.1200  229489.730000  12624.271608  1124.816914
    6022.1770  229857.200000  12630.685956  1126.402861
    6023.3880  230231.200000  12650.604763  1133.517944
    6024.5220  230182.720000  12632.027176  1141.161300
    6025.7330  230457.750000  12606.978987  1140.334395
    6026.8690  230912.300000  12602.446790  1136.038243
    6028.1570  231126.370000  12635.415400  1128.270148
    6029.3690  231234.970000  12696.906482  1123.031112
    6030.5820  231314.080000  12776.907509  1122.321649
    6031.8720  231514.700000  12870.416336  1125.141010
    6033.1610  231897.860000  12955.443096  1129.489788
    6034.5280  232423.530000  13014.996476  1135.367364
    6035.8190  233016.720000  13058.042280  1138.773961
    6037.1870  233735.420000  13104.619372  1140.711045
    6038.5550  234171.660000  13125.703882  1138.176518
    6040.0000  234489.410000  13155.296155  1132.170319
    6041.3700  235198.670000  13238.411437  1138.695787
    6042.8160  235449.450000  13364.036300  1151.748521
    6044.2640  235860.770000  13535.172576  1170.331068
    6045.7120  236356.590000  13689.822030  1192.442398
    6047.2370  236978.940000  13878.991257  1210.083392
    6048.7630  237709.800000  14040.662751  1230.251478
    6050.2890  238180.190000  14107.851524  1244.951394
    6051.8160  238538.090000  14177.568097  1263.182088
    6053.4220  239192.520000  14309.773290  1289.937478
    6054.9510  240094.450000  14446.517580  1317.225180
    6056.5570  240838.920000  14600.756293  1347.040991
    6058.2410  241609.910000  14755.523443  1373.386357
    6059.8490  242067.410000  14862.796942  1393.259883
    6061.5350  242164.420000  14947.587520  1407.664456
    6063.2220  242757.970000  15060.884295  1419.596873
    6064.9100  243497.030000  15163.689864  1424.058289
    6066.6760  244226.610000  15274.022718  1424.049429
    6068.3650  245119.700000  15389.872491  1420.570658
    6070.1330  245959.330000  15500.219685  1411.620305
    6071.9020  246754.470000  15587.086666  1402.199105
    6073.7490  247659.120000  15678.467662  1400.306701
    6075.5210  248327.300000  15758.369707  1416.944275
    6077.3690  249302.000000  15845.776738  1444.111153
    6079.2200  250415.220000  15946.708115  1470.807280
    6081.1490  251694.950000  16050.144271  1503.031154
    6083.0020  252595.200000  16134.086492  1533.786029
    6084.9340  253313.980000  16218.551591  1562.068254
    6086.8660  254238.280000  16316.533804  1581.881462
    6088.8000  255622.090000  16456.016300  1587.223309
    6090.8130  256432.420000  16575.026918  1575.094326
    6092.8270  257639.280000  16729.547494  1554.494585
    6094.8430  258515.660000  16866.582076  1530.423160
    6096.8590  259826.550000  17022.130524  1511.882092
    6098.8780  260811.950000  17144.178151  1499.870318
    6100.9750  261748.890000  17266.748657  1493.386872
    6103.0750  263042.340000  17405.843929  1511.432698
    6105.1750  264102.310000  17509.447037  1541.009261
    6107.2770  265446.810000  17599.552606  1582.111713
    6109.4590  266639.810000  17678.173118  1628.744905
    6111.6430  267754.340000  17768.316837  1673.907843
    6113.8270  268907.410000  17890.970059  1713.599484
    6116.0130  269955.970000  18012.138138  1744.820826
    6118.2800  271443.060000  18182.823662  1767.572955
    6120.4700  273023.660000  18346.016346  1782.852230
    6122.7400  274096.780000  18475.735114  1785.662073
    6125.0110  275279.440000  18602.960360  1796.001360
    6127.3630  276497.590000  18741.683453  1813.867135
    6129.6390  277956.280000  18909.942371  1839.264632
    6131.9950  279201.500000  19072.695234  1871.188412
    6134.3520  280389.220000  19234.984095  1897.645125
    6136.7900  281822.470000  19436.764183  1922.628641
    6139.1510  283382.220000  19647.077256  1944.143630
    6141.5940  284717.500000  19857.891020  1960.184224
    6144.0380  285982.310000  20056.232549  1975.757671
    6146.4840  287571.620000  20283.057715  1991.856149
    6148.9320  289292.470000  20513.417481  2004.487031
    6151.4620  290573.840000  20705.300420  2012.648923
    6153.9940  292235.720000  20934.693041  2030.336894
    6156.5280  293754.120000  21157.576978  2048.553821
    6159.0640  295111.030000  21363.987095  2058.300533
    6161.6030  296869.470000  21599.918623  2062.577774
    6164.2220  298438.440000  21823.353992  2060.382573
    6166.8440  299977.910000  22048.307435  2069.716908
    6169.4700  301620.910000  22298.779900  2101.581095
    6172.0960  303148.440000  22535.764634  2147.975105
    6174.8060  304906.470000  22790.255946  2205.896658
    6177.5170  306508.030000  23029.268584  2261.349941
    6180.2310  307952.090000  23251.792339  2308.329768
    6182.9480  309515.690000  23490.821855  2352.839239
    6185.6670  311227.810000  23754.361413  2397.877934
    6188.4690  313039.440000  24037.429764  2441.445273
    6191.2730  315077.590000  24332.013857  2479.544629
    6194.0810  316727.280000  24591.112278  2514.170902
    6196.8910  318794.470000  24875.704406  2554.326532
    6199.7030  320515.190000  25139.810615  2592.010087
    6202.5990  321967.410000  25357.443833  2619.227244
    6205.4980  323654.160000  25609.606584  2654.970486
    6208.3990  325341.440000  25846.242058  2692.241762
    6211.3040  327535.220000  26142.428077  2741.043237
    6214.2100  329266.530000  26386.104961  2783.375902
    6217.2020  331464.370000  26684.298538  2821.233844
    6220.1960  333489.720000  26953.011640  2847.624222
    6223.1930  335249.590000  27210.237991  2863.541940
    6226.1930  336924.970000  27452.994867  2875.993744
    6229.1960  338891.870000  27729.229930  2886.968787
    6232.2840  340778.310000  28000.017875  2896.476935
    6235.3750  341174.250000  28167.289105  2896.512259
    6238.4690  345382.720000  28657.068608  2925.075041
    6241.5650  337830.720000  28145.400301  2864.170964
    6244.7480  347195.220000  29072.194892  2956.792942
    6247.8520  350173.250000  29461.550255  3005.948119
    6251.0410  352552.780000  29807.389767  3068.627341
    6254.2330  354546.840000  30126.749566  3144.838278
    6257.4290  356587.440000  30456.623264  3225.579046
    6260.7100  358537.530000  30793.029233  3297.848680
    6263.9130  360581.160000  31115.903752  3353.645835
    6267.2020  362694.310000  31471.342136  3397.973954
    6270.4940  364388.970000  31801.259502  3439.829465
    6273.7900  366933.160000  32201.714811  3489.218223
    6277.1720  368965.840000  32548.655601  3539.130464
    6280.4750  371134.090000  32910.127129  3591.577158
    6283.8650  373065.810000  33276.113870  3636.551485
    6287.2580  375308.090000  33666.600472  3682.052208
    6290.6550  377330.840000  34037.619278  3729.086742
    6294.0560  379613.160000  34433.149004  3778.645961
    6297.5440  381815.970000  34830.196937  3838.738276
    6300.9540  383782.310000  35214.731050  3901.357193
    6304.4500  385835.190000  35614.800982  3955.505118
    6307.9500  387985.560000  36015.381908  4010.183988
    6311.5380  390652.440000  36465.487467  4068.393745
    6315.0470  392687.870000  36871.100960  4110.131702
    6318.5600  395113.810000  37320.204290  4153.394077
    6322.1610  397457.250000  37750.826940  4193.188324
    6325.7660  399602.220000  38178.999087  4231.512958
    6329.3750  401992.720000  38611.647475  4278.365221
    6333.0730  403503.750000  38974.819406  4316.749901
    6336.6910  405816.280000  39408.500622  4367.660648
    6340.3970  408220.310000  39865.727870  4425.104987
    6344.1090  410712.910000  40339.432101  4491.072128
    6347.8260  412753.000000  40768.647855  4562.571322
    6351.5460  414723.590000  41180.393210  4630.599078
    6355.2710  417272.720000  41650.651587  4701.158712
    6359.0850  419630.370000  42118.423271  4776.242991
    6362.8190  422194.560000  42594.717807  4857.861160
    6366.6450  424320.250000  43046.523675  4937.007985
    6370.4730  426188.440000  43459.809691  5009.677771
    6374.3070  428668.190000  43935.654673  5081.884563
    6378.2300  431042.440000  44435.982324  5149.618086
    6382.0750  433243.190000  44907.831931  5209.882017
    6386.0090  435178.500000  45363.203996  5275.673198
    6389.9480  436671.280000  45761.068293  5333.990754
    6393.8930  440256.620000  46375.475960  5425.845741
    6397.8420  442627.470000  46880.391238  5495.224766
    6401.8820  444811.840000  47397.778537  5564.128459
    6405.8430  447057.720000  47900.728535  5629.568036
    6409.8940  449645.120000  48447.156605  5703.532099
    6413.9500  452184.030000  49019.111025  5786.029141
    6418.0130  454473.500000  49549.620712  5869.054843
    6422.0810  456910.440000  50121.617294  5950.607992
    6426.1530  459114.940000  50655.083588  6032.687458
    6430.3180  461534.940000  51227.103680  6106.304492
    6434.4020  464361.470000  51850.640063  6185.447026
    6438.5790  466810.500000  52447.695339  6260.120247
    6442.7610  468933.060000  53006.207485  6330.315197
    6446.9490  471526.120000  53629.296658  6426.046508
    6451.2300  473934.750000  54229.858630  6524.306434
    6455.4300  475970.840000  54786.980951  6620.094150
    6459.7230  478394.500000  55420.563429  6722.409897
    6463.9340  480537.660000  56008.731713  6819.257548
    6468.2390  483104.340000  56657.346151  6919.632458
    6472.5500  485095.530000  57231.522578  7004.542314
    6476.9550  488883.250000  58037.172383  7121.972392
    6481.2780  490608.500000  58622.316832  7216.928576
    6485.6070  493426.250000  59332.036518  7326.430346
    6490.0310  495882.530000  59986.231687  7430.447339
    6494.4610  498117.310000  60621.984725  7521.003788
    6498.8980  500036.620000  61235.209073  7609.080493
    6503.3410  502087.470000  61873.955970  7704.690872
    6507.7900  504354.810000  62530.223039  7807.829470
    6512.3350  507182.690000  63282.971099  7928.495333
    6516.7970  509611.090000  63972.280106  8042.692106
    6521.3550  512352.000000  64704.055996  8158.414828
    6525.9200  513987.440000  65300.378289  8259.671604
    6530.4920  517449.370000  66148.200350  8388.457759
    6535.0690  519588.840000  66827.508957  8500.770501
    6539.6550  521037.840000  67396.404357  8597.613534
    6544.2470  523892.340000  68173.723535  8707.983122
    6548.9360  525782.370000  68832.662772  8806.890107
    6553.5410  528317.940000  69579.032278  8919.315996
    6558.2440  530552.000000  70307.956665  9027.278827
    6562.9540  532819.560000  71039.341575  9143.761379
    6567.6710  534899.690000  71743.283033  9258.779477
    6572.3950  537400.310000  72508.752088  9382.331314
    6577.2180  540382.500000  73376.683535  9523.402802
    6581.9560  542891.120000  74157.171808  9654.013969
    6586.7920  545190.310000  74926.222274  9785.149961
    6591.5460  547449.000000  75685.705119  9909.811299
    6596.3970  549848.250000  76480.693090  10046.007894
    6601.2570  551857.000000  77229.225554  10175.724724
    6606.1250  554296.250000  78048.255146  10301.971566
    6611.0910  556791.060000  78880.815826  10434.754909
    6615.9730  559108.370000  79693.921721  10575.069726
    6620.9550  562112.190000  80636.504492  10728.915248
    6625.8530  563886.500000  81373.607652  10849.282949
    6630.8500  565275.370000  82067.246705  10974.177279
    6635.8550  567174.750000  82830.343140  11110.609441
    6640.8690  570072.690000  83780.968795  11265.555436
    6645.8910  572931.060000  84721.160168  11427.050498
    6650.9190  574116.000000  85425.825935  11553.061497
    6655.9570  577204.500000  86420.993198  11716.599806
    6661.0960  579742.440000  87322.654941  11878.676903
    6666.1500  581317.940000  88101.876828  12013.281580
    6671.3050  584001.000000  89047.567670  12172.407320
    6676.4690  585296.500000  89803.823867  12307.065846
    6681.6420  587350.560000  90658.604045  12451.260312
    6686.8220  589257.120000  91495.850809  12592.981373
    6692.0110  589763.250000  92132.631460  12717.222602
    6697.3030  589574.870000  92668.880762  12822.003491
    6702.5090  569606.000000  90191.744073  12501.315687
    6707.7240  613384.620000  97583.085881  13562.154794
    6713.0420  607341.810000  97233.834868  13540.507472
    6718.3690  607083.500000  97789.219742  13653.410493
    6723.7050  608080.750000  98551.049765  13791.820315
    6729.0490  608819.440000  99288.399127  13926.781844
    6734.4030  609069.690000  99948.364203  14062.275208
    6739.7660  614397.500000  101413.692120  14305.271602
    6745.1370  615141.750000  102199.596442  14453.805395
    6750.6140  600212.560000  100298.110785  14227.886248
    6756.0030  600861.940000  101067.962947  14371.472870
    6761.4980  610635.750000  103504.452133  14755.614103
    6766.9060  625601.120000  106574.468923  15236.273198
    6772.4200  610358.000000  104674.932836  15002.452238
    6777.9430  631250.440000  108901.921849  15654.175361
    6783.4760  631712.370000  109662.358792  15800.414594
    6789.0180  632114.810000  110416.440358  15949.189917
    6794.5690  632529.750000  111189.978357  16110.500350
    6800.2280  630512.250000  111508.027546  16202.322307
    6805.7990  595014.250000  105973.530942  15442.683863
    6811.4770  652887.810000  116920.627538  17076.569299
    6817.0670  648971.870000  116964.254633  17122.003182
    6822.7650  649851.440000  117866.282519  17302.928816
    6828.4730  650418.500000  118722.994446  17478.437911
    6834.1900  652006.120000  119778.110072  17671.443027
    6839.9180  653160.250000  120745.678731  17866.965500
    6845.6560  654874.870000  121827.873945  18071.031368
    6851.4050  656776.000000  122951.505901  18275.621562
    6857.1630  658394.690000  124044.774403  18489.751106
    6863.0310  660066.940000  125165.423966  18704.408675
    6868.8100  661281.620000  126168.687412  18908.599159
    6874.6980  662896.870000  127291.333965  19128.290698
    6880.4980  664837.620000  128479.560623  19360.537219
    6886.4070  666378.940000  129592.315440  19566.295873
    6892.3270  668504.690000  130837.672319  19815.617952
    6898.2580  669950.060000  131955.424489  20036.451152
    6904.2000  671902.870000  133152.726824  20273.807690
    6910.1520  672005.250000  134035.562026  20454.689119
    6916.1150  674047.120000  135290.865430  20703.111841
    6922.0890  675308.500000  136404.621050  20931.048348
    6928.1750  676491.440000  137517.034151  21165.527442
    6934.1710  677808.870000  138685.855849  21403.518953
    6940.2790  680084.810000  140033.196307  21666.049820
    6946.2960  680776.310000  141071.207320  21888.136536
    6952.4280  682083.310000  142232.466322  22130.700464
    6958.5690  683669.810000  143453.518115  22374.838967
    6964.6200  685307.810000  144695.870517  22635.491504
    6970.7850  686389.370000  145839.844110  22876.657361
    6976.9600  688727.440000  147263.221053  23154.371698
    6983.1470  689713.060000  148359.243871  23389.604138
    6989.3470  691094.190000  149582.805760  23645.388918
    6995.6610  692383.810000  150787.783435  23897.681374
    7001.8820  694164.940000  152110.251689  24172.499386
    7008.1160  694520.620000  153113.251304  24384.845473
    7014.4650  695769.810000  154352.797144  24650.738830
    7020.7220  697128.500000  155566.883065  24895.143775
    7027.0960  698797.750000  156922.391025  25179.076662
    7033.3760  699778.500000  158088.476856  25432.550171
    7039.7740  701382.750000  159386.129198  25706.573663
    7046.1830  703128.560000  160808.264005  25999.095488
    7052.6040  702881.870000  161711.816517  26222.159630
    7059.0390  704646.690000  163100.981642  26511.736673
    7065.4840  705913.000000  164400.578330  26787.865374
    7071.9420  706585.870000  165550.740600  27046.503534
    7078.4130  708584.250000  167038.439948  27356.686152
    7084.8960  710523.190000  168504.690465  27669.413186
    7091.3910  711364.620000  169696.258685  27944.604096
    7097.8990  711118.560000  170669.539111  28180.384955
    7104.5260  712024.000000  171947.228503  28463.672318
    7111.0590  712860.000000  173185.460742  28741.499320

