# XDI/1.0
# Column.1: energy eV
# Column.2: i0
# Column.3: itrans
# Column.4: irefer
# Beamline.name: SSRL 2-3
# Beamline.notes: vert slits = 0.6mm
# Detector.I0: N2 15cm
# Detector.I1: N2 30cm
# Detector.I2: N2 15cm
# Element.edge: K
# Element.symbol: Cr
# Mono.d_spacing: 3.13550
# Mono.name: Si(111)
# Mono.notes: unfocused, detuned 75%, clockwise at E=5990eV
# Sample.formula: Na2CrO4
# Sample.name: Na2CrO4
# Sample.prep: powder on tape (5 layers)
# Sample.reference: Cr foil
# Sample.temperature: 100K
# Scan.start_time: 1997-04-18 19:10:23
# ///
#    Note: mono d_spacing is nominal!
#     exafs to K16
#     396  E XMU XMUR I0
#-------------
#   energy   i0   itrans  irefer
    5759.9890  218056.800000  15076.701109  1927.301001
    5769.9800  217796.800000  15330.702515  1970.299414
    5780.0070  217615.800000  15599.706854  2018.301109
    5790.0030  217215.800000  15847.699208  2063.299353
    5799.9650  217199.800000  16134.707019  2111.301680
    5810.0340  217125.800000  16418.699670  2162.298787
    5820.0000  216987.800000  16698.704320  2213.301143
    5830.0020  216754.800000  16974.695935  2264.300227
    5839.9710  216508.800000  17252.709322  2315.302140
    5849.9750  216260.800000  17527.692990  2366.298895
    5860.0160  215912.800000  17804.702761  2418.299537
    5870.0220  215504.800000  18076.706632  2468.301305
    5879.9930  215263.800000  18363.706662  2525.300973
    5890.0000  215073.800000  18665.692721  2579.297887
    5899.9710  214909.800000  18957.704242  2637.299311
    5909.9780  214582.800000  19253.708237  2692.302237
    5920.0210  214192.800000  19534.703373  2747.299815
    5930.0260  213706.800000  19806.694411  2802.298525
    5939.9950  213554.800000  20106.707668  2860.299885
    5949.9990  213409.800000  20416.701379  2919.301166
    5959.9650  212910.800000  20695.707232  2975.301263
    5969.9670  212419.800000  20959.699140  3027.301127
    5970.4870  212292.800000  20959.698061  3029.299649
    5971.0060  211879.800000  20939.705320  3026.301155
    5971.5260  210999.800000  20866.691627  3017.299378
    5971.9720  209641.800000  20743.695310  2998.299696
    5972.4920  208806.800000  20680.710844  2988.302267
    5973.0120  210000.800000  20817.694876  3008.300617
    5973.5320  211953.800000  21022.710934  3042.301576
    5973.9780  212414.800000  21076.695824  3052.298663
    5974.4980  212633.800000  21123.695868  3057.297749
    5975.0190  212789.800000  21146.699134  3062.298641
    5975.4640  212749.800000  21159.708426  3062.301714
    5975.9850  212558.800000  21156.700334  3063.299662
    5976.5060  212749.800000  21192.700946  3070.298620
    5977.0260  212806.800000  21216.702215  3072.300753
    5977.4730  212656.800000  21211.693263  3072.300405
    5977.9940  212904.800000  21248.708508  3079.302522
    5978.5150  212807.800000  21259.703170  3082.301046
    5979.0370  212730.800000  21266.701011  3082.301372
    5979.4830  212660.800000  21269.697519  3081.299452
    5980.0050  212804.800000  21303.711654  3089.302427
    5980.5260  212923.800000  21331.702687  3094.298904
    5980.9730  212663.800000  21316.693858  3089.299960
    5981.4950  212813.800000  21346.709478  3094.302771
    5982.0160  213062.800000  21388.704550  3100.300239
    5982.4630  212780.800000  21370.693649  3096.299002
    5982.9860  212869.800000  21393.704814  3100.299474
    5983.5070  213060.800000  21426.694924  3108.298813
    5984.0300  213015.800000  21442.701721  3107.300495
    5984.4770  212882.800000  21439.709347  3106.301467
    5984.9990  212815.800000  21441.708121  3104.302346
    5985.5210  211436.800000  21308.693519  3085.297651
    5985.9700  208433.800000  21024.711517  3045.300202
    5986.4920  200125.800000  20196.698871  2921.298382
    5987.0150  186949.800000  18876.695740  2727.300062
    5987.4630  184522.800000  18633.704915  2691.301843
    5987.9860  194515.800000  19656.702881  2835.298985
    5988.5090  202063.800000  20422.709431  2932.301147
    5989.0320  206407.800000  20865.703362  2980.299574
    5989.4800  208039.800000  21027.695613  2976.298480
    5990.0030  209130.800000  21134.692689  2930.300254
    5990.5260  210045.800000  21193.692253  2852.299760
    5990.9750  210109.800000  21172.692277  2780.298375
    5991.4990  210404.800000  21132.693458  2713.299154
    5992.0210  210585.800000  21038.690998  2648.298004
    5992.4710  210645.800000  20894.710691  2596.301805
    5992.9950  210709.800000  20588.709260  2521.300479
    5993.5180  210526.800000  19879.697025  2403.300404
    5993.9670  211009.800000  18858.704376  2258.300587
    5994.4920  210963.800000  17549.694718  2078.298551
    5995.0160  211006.800000  17541.708014  2061.301049
    5995.4650  211236.800000  18636.700450  2182.300900
    5995.9890  211123.800000  19923.694290  2327.299753
    5996.5140  211016.800000  20590.704810  2406.301090
    5996.9630  211029.800000  20839.711136  2435.300983
    5997.4880  211232.800000  21009.691742  2450.298473
    5998.0120  211066.800000  21049.707637  2438.301453
    5998.5380  210704.800000  20987.711541  2400.300893
    5998.9870  210887.800000  20956.696525  2361.299820
    5999.5130  210946.800000  20857.695502  2302.298494
    6000.0370  210352.800000  20675.700485  2232.299279
    6000.4870  209896.800000  20503.692284  2175.298685
    6001.0130  208832.800000  20250.691311  2103.298721
    6001.4620  207489.800000  20005.698977  2045.299394
    6001.9880  206759.800000  19820.697758  1993.300351
    6002.5130  208271.800000  19832.697359  1965.300102
    6002.9640  209791.800000  19852.691906  1946.298980
    6003.4900  210332.800000  19737.710376  1915.301475
    6004.0160  210436.800000  19550.705457  1875.301358
    6004.4660  210456.800000  19375.694241  1843.299932
    6004.9930  210588.800000  19153.709739  1804.301285
    6005.5180  210442.800000  18881.694018  1761.299488
    6005.9700  210625.800000  18676.706381  1727.301043
    6006.4960  210841.800000  18410.701324  1690.300104
    6007.0220  210798.800000  18105.705762  1644.300596
    6007.4730  210328.800000  17799.707428  1603.300025
    6008.0000  210719.800000  17513.697497  1561.299190
    6008.5260  210731.800000  17207.704764  1522.299826
    6008.9780  210629.800000  16964.706371  1486.300416
    6009.5040  210932.800000  16744.696803  1451.299844
    6010.0320  210650.800000  16520.694153  1417.298771
    6010.9360  210846.560000  16246.453928  1382.063490
    6011.8390  210780.840000  16056.727501  1377.357655
    6012.8180  210918.640000  15989.519345  1403.181933
    6013.7980  210741.950000  15970.805499  1438.533798
    6014.7780  210928.800000  15993.615891  1469.413932
    6015.7580  210884.160000  16008.950594  1481.825803
    6016.8150  210974.030000  16021.779980  1482.764195
    6017.7960  210745.420000  15997.138536  1469.233542
    6018.9290  211182.340000  16015.002368  1452.233812
    6019.9860  211440.780000  16010.375155  1435.759474
    6021.1200  211525.730000  15988.275077  1427.816916
    6022.1770  211660.200000  15969.683739  1426.401956
    6023.3880  211858.200000  15966.602277  1437.518241
    6024.5220  212245.720000  15979.036751  1448.162715
    6025.7330  212475.750000  15994.979059  1452.335375
    6026.8690  212824.300000  16040.438543  1447.038339
    6028.1570  213116.370000  16116.415592  1437.269818
    6029.3690  213623.970000  16220.896524  1437.029765
    6030.5820  213746.080000  16307.901883  1437.320719
    6031.8720  214139.700000  16416.412651  1441.140200
    6033.1610  214553.860000  16524.445045  1445.489188
    6034.5280  214972.530000  16619.991077  1454.366270
    6035.8190  215342.720000  16698.047652  1459.774257
    6037.1870  215474.420000  16749.613809  1462.710471
    6038.5550  215972.660000  16828.701067  1462.176129
    6040.0000  216662.410000  16924.299473  1463.171629
    6041.3700  216727.670000  16989.399461  1467.694186
    6042.8160  217268.450000  17131.034228  1482.748835
    6044.2640  217750.770000  17258.178583  1502.331376
    6045.7120  218554.590000  17414.824446  1523.442875
    6047.2370  218765.940000  17547.989609  1539.083934
    6048.7630  219199.800000  17672.656996  1559.251101
    6050.2890  219859.190000  17770.846828  1578.951937
    6051.8160  220619.090000  17916.563851  1608.180860
    6053.4220  221021.520000  18071.788436  1640.938070
    6054.9510  221469.450000  18205.516576  1673.224590
    6056.5570  222172.920000  18365.758827  1705.040728
    6058.2410  223160.910000  18560.526247  1736.386241
    6059.8490  223627.410000  18678.802388  1760.261396
    6061.5350  223426.420000  18741.571715  1774.664060
    6063.2220  224060.970000  18867.883715  1786.597910
    6064.9100  224489.030000  18965.695397  1791.058600
    6066.6760  225207.610000  19082.023004  1786.050376
    6068.3650  225867.700000  19189.867966  1777.570296
    6070.1330  226523.330000  19298.221508  1762.621063
    6071.9020  227478.470000  19419.089878  1753.199837
    6073.7490  228315.120000  19525.470251  1757.307451
    6075.5210  229113.300000  19632.368163  1777.944001
    6077.3690  229935.000000  19740.782238  1809.111173
    6079.2200  230674.220000  19850.702801  1843.806919
    6081.1490  231625.950000  19976.144488  1885.031980
    6083.0020  232594.200000  20101.095263  1924.786985
    6084.9340  233501.980000  20234.550351  1961.068655
    6086.8660  234314.280000  20367.536620  1983.881524
    6088.8000  235014.090000  20497.019182  1982.222064
    6090.8130  236113.420000  20668.034565  1966.094884
    6092.8270  237148.280000  20841.550191  1940.494038
    6094.8430  238278.660000  21004.586720  1912.424539
    6096.8590  239142.550000  21158.121301  1886.882163
    6098.8780  240113.950000  21314.180499  1869.869425
    6100.9750  241069.890000  21461.763103  1866.387775
    6103.0750  242452.340000  21634.843824  1889.433701
    6105.1750  243530.310000  21775.433075  1930.006578
    6107.2770  244581.810000  21905.546162  1983.111060
    6109.4590  245517.810000  22018.180323  2043.746188
    6111.6430  246648.340000  22167.330313  2101.910299
    6113.8270  247827.390000  22314.986560  2151.601602
    6116.0130  248976.970000  22471.153101  2187.821724
    6118.2800  250160.050000  22630.824955  2208.573679
    6120.4700  251410.660000  22815.011029  2224.852670
    6122.7400  252542.780000  22980.721300  2232.662144
    6125.0110  253444.440000  23131.946498  2242.998591
    6127.3630  254894.590000  23346.686941  2274.868133
    6129.6390  256063.280000  23537.940331  2307.264449
    6131.9950  257148.480000  23733.692457  2343.188623
    6134.3520  258612.220000  23956.979947  2378.644338
    6136.7900  260191.450000  24205.762053  2410.628993
    6139.1510  261284.220000  24406.067767  2429.141203
    6141.5940  262556.500000  24645.893565  2448.185889
    6144.0380  263997.310000  24897.214101  2470.755350
    6146.4840  265367.620000  25143.064923  2485.858592
    6148.9320  266872.470000  25396.437387  2495.489504
    6151.4620  268268.840000  25644.307369  2507.648878
    6153.9940  269914.720000  25919.693777  2530.335891
    6156.5280  271465.120000  26190.576216  2550.554176
    6159.0640  273060.030000  26464.009058  2564.302883
    6161.6030  274193.470000  26696.913303  2560.577841
    6164.2220  275536.440000  26957.374289  2557.384070
    6166.8440  277105.910000  27246.328543  2574.719973
    6169.4700  278637.910000  27535.776569  2613.580513
    6172.0960  280246.440000  27825.764134  2674.975868
    6174.8060  281695.470000  28111.270851  2740.897972
    6177.5170  282997.030000  28377.268022  2807.348386
    6180.2310  284716.090000  28695.792474  2867.330646
    6182.9480  286351.690000  29000.838423  2923.839766
    6185.6670  287628.810000  29262.381834  2968.880052
    6188.4690  289140.440000  29571.424947  3008.445565
    6191.2730  290724.590000  29870.022722  3049.544981
    6194.0810  292344.280000  30176.097843  3089.169081
    6196.8910  294051.470000  30483.691023  3133.325248
    6199.7030  295566.190000  30771.834429  3171.012080
    6202.5990  297110.410000  31078.455209  3215.226546
    6205.4980  298955.160000  31392.581141  3259.968705
    6208.3990  300604.440000  31705.248902  3308.243049
    6211.3040  302354.220000  32017.423659  3364.045421
    6214.2100  304135.530000  32337.107972  3411.374961
    6217.2020  306005.370000  32657.307728  3456.234324
    6220.1960  307500.720000  32944.009172  3482.625379
    6223.1930  309251.590000  33265.244816  3501.544485
    6226.1930  311006.970000  33577.000495  3515.994176
    6229.1960  312760.870000  33902.233763  3529.968350
    6232.2840  314666.310000  34256.000416  3541.476548
    6235.3750  314059.250000  34330.276526  3524.510856
    6238.4690  318971.720000  35006.069013  3574.075162
    6241.5650  311863.720000  34369.388448  3498.171130
    6244.7480  320251.220000  35443.211880  3607.794884
    6247.8520  323150.250000  35920.543901  3668.945846
    6251.0410  325373.780000  36314.373017  3745.625455
    6254.2330  327603.840000  36740.734577  3838.835531
    6257.4290  329195.440000  37094.607808  3931.576997
    6260.7100  331310.530000  37502.031044  4016.850319
    6263.9130  333253.160000  37910.929256  4080.646539
    6267.2020  335349.310000  38333.328170  4135.973396
    6270.4940  337234.970000  38724.285199  4185.833835
    6273.7900  339201.160000  39139.701040  4239.215904
    6277.1720  341429.840000  39601.666921  4304.130794
    6280.4750  343393.090000  40012.136715  4360.578909
    6283.8650  345272.810000  40447.136835  4416.554460
    6287.2580  347074.090000  40867.628605  4463.053946
    6290.6550  348988.840000  41296.631901  4517.085318
    6294.0560  351199.160000  41769.168428  4580.647987
    6297.5440  353201.970000  42220.211264  4648.739215
    6300.9540  355142.310000  42676.720422  4720.352988
    6304.4500  356947.190000  43116.805662  4787.507129
    6307.9500  359226.560000  43619.368170  4853.180561
    6311.5380  361158.440000  44075.485962  4908.393771
    6315.0470  363360.870000  44589.101700  4967.131312
    6318.5600  365667.810000  45094.184811  5014.392604
    6322.1610  367603.250000  45568.843735  5059.189191
    6325.7660  369381.220000  46024.976995  5099.513930
    6329.3750  371412.720000  46510.630395  5155.364882
    6333.0730  373493.750000  46999.843449  5211.753017
    6336.6910  375555.280000  47513.490318  5272.658410
    6340.3970  377819.310000  48042.693594  5344.099556
    6344.1090  379921.910000  48557.454787  5421.072812
    6347.8260  382021.000000  49055.660447  5498.572873
    6351.5460  384065.590000  49562.393237  5579.601429
    6355.2710  386117.720000  50073.668799  5661.157050
    6359.0850  388155.370000  50581.439344  5745.245813
    6362.8190  390626.560000  51140.718226  5839.861110
    6366.6450  392794.250000  51680.520855  5941.008724
    6370.4730  394733.440000  52188.841186  6025.682203
    6374.3070  397114.190000  52751.640509  6109.884512
    6378.2300  399130.440000  53283.956428  6184.618242
    6382.0750  401517.190000  53871.810613  6260.877474
    6386.0090  403454.500000  54397.201963  6333.675517
    6389.9480  405703.280000  54987.069356  6418.991736
    6393.8930  407869.620000  55567.448130  6502.837138
    6397.8420  410047.470000  56135.360925  6584.220371
    6401.8820  412447.840000  56761.810503  6665.131939
    6405.8430  414569.720000  57354.721218  6743.568009
    6409.8940  416862.120000  57965.181982  6831.535871
    6413.9500  419320.030000  58610.122650  6923.029225
    6418.0130  421404.500000  59221.590512  7019.052097
    6422.0810  423667.440000  59871.572381  7117.608669
    6426.1530  425865.940000  60499.106837  7205.694397
    6430.3180  428342.940000  61174.114627  7295.306064
    6434.4020  430341.470000  61802.635539  7375.443307
    6438.5790  432526.500000  62459.702961  7453.118953
    6442.7610  434875.060000  63136.229917  7548.318109
    6446.9490  436962.120000  63792.301021  7646.044914
    6451.2300  439296.750000  64485.871469  7761.302382
    6455.4300  441278.840000  65136.949307  7871.093246
    6459.7230  443734.500000  65870.613117  7994.416900
    6463.9340  446003.660000  66574.735469  8103.257637
    6468.2390  448420.340000  67322.334842  8223.632747
    6472.5500  450711.530000  68043.520771  8327.543476
    6476.9550  453081.250000  68782.164143  8446.975677
    6481.2780  455319.500000  69510.329702  8562.929563
    6485.6070  457526.250000  70239.038477  8680.431680
    6490.0310  460043.530000  71044.263718  8803.453744
    6494.4610  462384.310000  71771.925161  8914.992278
    6498.8980  464571.620000  72507.190312  9016.080756
    6503.3410  466266.470000  73197.941188  9121.691832
    6507.7900  468659.810000  73975.218608  9239.826916
    6512.3350  471086.690000  74795.979406  9369.494371
    6516.7970  473072.090000  75516.244121  9495.687869
    6521.3550  475291.000000  76293.080647  9621.423705
    6525.9200  477838.440000  77134.348232  9755.670286
    6530.4920  479877.370000  77896.232786  9880.465165
    6535.0690  482531.840000  78759.500228  10015.770575
    6539.6550  484868.840000  79568.351644  10142.610607
    6544.2470  486550.340000  80283.760896  10249.986311
    6548.9360  488556.370000  81062.613229  10368.878407
    6553.5410  490396.940000  81806.045341  10482.321220
    6558.2440  492628.000000  82641.942105  10613.272339
    6562.9540  494587.590000  83430.359323  10739.765599
    6567.6710  497217.690000  84342.335401  10885.786400
    6572.3950  499565.310000  85209.790593  11025.340887
    6577.2180  501911.470000  86099.684713  11174.403372
    6581.9560  504494.120000  87004.181840  11329.015574
    6586.7920  506481.310000  87853.216079  11471.152696
    6591.5460  508736.030000  88708.727410  11620.819535
    6596.3970  510929.250000  89582.691546  11766.001296
    6601.2570  512967.000000  90458.258803  11914.730784
    6606.1250  514736.250000  91278.259125  12048.975476
    6611.0910  517607.030000  92282.850731  12210.757494
    6615.9730  519136.340000  93071.921726  12344.067042
    6620.9550  521407.190000  93994.502000  12500.908119
    6625.8530  523859.500000  94949.627924  12649.282809
    6630.8500  526478.370000  95950.194362  12819.176939
    6635.8550  528017.750000  96778.310159  12963.606099
    6640.8690  530323.690000  97747.982178  13130.562864
    6645.8910  532712.060000  98740.090863  13304.044052
    6650.9190  534554.000000  99637.814318  13461.055711
    6655.9570  536401.500000  100535.002237  13614.602743
    6661.0960  538684.440000  101542.653823  13796.679468
    6666.1500  540800.940000  102506.915325  13959.276410
    6671.3050  543015.000000  103496.618830  14130.406203
    6676.4690  544907.500000  104436.794959  14293.059296
    6681.6420  546708.560000  105365.563779  14459.257449
    6686.8220  548780.120000  106359.817581  14628.970614
    6692.0110  549466.250000  107085.582636  14765.219074
    6697.3030  549207.870000  107657.942701  14876.012312
    6702.5090  525109.000000  103668.764547  14358.324235
    6707.7240  570342.620000  113071.037085  15691.140724
    6713.0420  565434.810000  112700.855323  15679.513857
    6718.3690  565577.500000  113375.161513  15816.399314
    6723.7050  566656.750000  114219.123706  15965.844811
    6729.0490  567368.440000  115016.419760  16118.777532
    6734.4030  567704.690000  115738.272640  16265.257178
    6739.7660  574998.500000  117892.764057  16613.280940
    6745.1370  573340.750000  118203.677511  16700.826632
    6750.6140  560586.560000  116086.042766  16447.881161
    6756.0030  572467.940000  119372.962890  16966.481714
    6761.4980  569056.750000  119529.495542  17026.622790
    6766.9060  582193.120000  122848.417092  17551.268281
    6772.4200  570474.000000  121099.872076  17345.456419
    6777.9430  587798.440000  125389.902173  18004.164640
    6783.4760  588520.370000  126290.465994  18181.426291
    6789.0180  589837.810000  127325.474673  18388.189818
    6794.5690  589389.750000  127951.934232  18532.495034
    6800.2280  586985.250000  128156.053812  18613.324435
    6805.7990  556143.250000  122147.570124  17784.688757
    6811.4770  606959.810000  134042.589024  19565.573700
    6817.0670  604450.870000  134277.209806  19647.996876
    6822.7650  604648.440000  135087.294882  19826.931658
    6828.4730  606192.500000  136218.960179  20042.431324
    6834.1900  607805.120000  137367.017583  20258.415840
    6839.9180  609339.250000  138481.698121  20475.973479
    6845.6560  611132.870000  139698.900906  20703.036880
    6851.4050  612554.000000  140817.552951  20920.637287
    6857.1630  613985.690000  141960.751525  21143.755669
    6863.0310  615500.940000  143120.434175  21366.397397
    6868.8100  617436.620000  144414.613601  21622.586152
    6874.6980  619238.870000  145644.408815  21871.317930
    6880.4980  621082.620000  146979.646287  22128.538638
    6886.4070  622276.940000  148137.401976  22363.322641
    6892.3270  623888.690000  149353.648125  22605.606959
    6898.2580  625405.060000  150603.346437  22854.442894
    6904.2000  627806.870000  152069.642054  23136.780653
    6910.1520  629766.250000  153407.490683  23401.677757
    6916.1150  630309.120000  154473.778844  23627.100175
    6922.0890  631185.500000  155535.623770  23848.034360
    6928.1750  632823.440000  156862.944243  24120.508591
    6934.1710  634899.870000  158296.886987  24410.522795
    6940.2790  636616.810000  159651.277404  24692.064591
    6946.2960  637271.310000  160699.069633  24925.103873
    6952.4280  638979.310000  162060.557180  25207.714412
    6958.5690  640130.810000  163304.498343  25472.833876
    6964.6200  641837.810000  164658.830507  25751.468108
    6970.7850  644901.370000  166386.831956  26081.660131
    6976.9600  645545.440000  167522.321128  26321.381741
    6983.1470  646764.060000  168801.177913  26599.610167
    6989.3470  649097.190000  170379.697123  26910.363132
    6995.6610  649637.810000  171478.688264  27155.673472
    7001.8820  651837.940000  173034.149808  27482.487201
    7008.1160  653871.620000  174547.346676  27789.855179
    7014.4650  655000.810000  175856.878218  28063.743386
    7020.7220  656246.500000  177156.846846  28346.157429
    7027.0960  657160.750000  178382.417970  28609.094629
    7033.3760  658844.500000  179850.426773  28907.542380
    7039.7740  660268.750000  181233.082076  29215.574755
    7046.1830  661526.560000  182592.178635  29515.104047
    7052.6040  662999.870000  184022.824131  29822.161574
    7059.0390  663957.690000  185303.945871  30113.736433
    7065.4840  665233.000000  186700.616985  30427.851454
    7071.9420  665871.870000  187924.683832  30698.483766
    7078.4130  667403.250000  189386.412022  31019.667412
    7084.8960  667737.190000  190547.530614  31289.377657
    7091.3910  669492.620000  192096.363993  31626.619079
    7097.8990  670467.560000  193439.600137  31935.406622
    7104.5260  671063.000000  194708.198971  32227.657817
    7111.0590  672387.000000  196160.473701  32543.480854

