# XDI/1.0
# Column.1: energy eV
# Column.2: i0
# Column.3: itrans
# Column.4: irefer
# Beamline.name: SSRL 2-3
# Beamline.notes: vert slits = 0.6mm
# Detector.I0: N2 15cm
# Detector.I1: N2 30cm
# Detector.I2: N2 15cm
# Element.edge: K
# Element.symbol: Cr
# Mono.d_spacing: 3.13550
# Mono.name: Si(111)
# Mono.notes: unfocused, detuned 75%, clockwise at E=5990eV
# Sample.formula: Na2CrO4
# Sample.name: Na2CrO4
# Sample.prep: powder on tape (5 layers)
# Sample.reference: Cr foil
# Sample.temperature: 100K
# Scan.start_time: 1997-04-18 19:10:23
# ///
#    Note: mono d_spacing is nominal!
#     exafs to K16
#     396  E XMU XMUR I0
#-------------
#   energy   i0   itrans  irefer
    5759.9890  217666.800000  15041.701641  1917.300972
    5769.9800  217297.800000  15288.696476  1960.300471
    5780.0070  217084.800000  15548.700416  2006.299661
    5790.0030  216856.800000  15812.697047  2054.300145
    5799.9650  216637.800000  16077.693824  2103.298516
    5810.0340  216185.800000  16336.701837  2148.300841
    5820.0000  216215.800000  16626.702429  2201.299754
    5830.0020  216026.800000  16912.694166  2250.299850
    5839.9710  216073.800000  17208.699073  2304.300169
    5849.9750  215805.800000  17483.698442  2355.299579
    5860.0160  215652.800000  17775.706238  2411.301654
    5870.0220  215459.800000  18069.697233  2465.299619
    5879.9930  215144.800000  18343.701807  2518.300552
    5890.0000  214979.800000  18648.693131  2574.298501
    5899.9710  214533.800000  18925.709746  2629.301711
    5909.9780  214470.800000  19242.696739  2689.299091
    5920.0210  214080.800000  19517.695466  2744.298574
    5930.0260  213869.800000  19818.709557  2800.302420
    5939.9950  213239.800000  20083.696249  2854.299215
    5949.9990  212895.800000  20367.710824  2908.300367
    5959.9650  212695.800000  20665.692866  2965.299312
    5969.9670  212058.800000  20917.697996  3015.300805
    5970.4870  211983.800000  20931.702101  3018.300295
    5971.0060  211529.800000  20902.711490  3016.302932
    5971.5260  210351.800000  20796.700975  3004.299313
    5971.9720  209064.800000  20691.691684  2986.297279
    5972.4920  208415.800000  20632.698491  2980.300465
    5973.0120  209673.800000  20773.704698  2999.300185
    5973.5320  211175.800000  20936.707580  3026.300638
    5973.9780  211951.800000  21027.705765  3036.300672
    5974.4980  212089.800000  21054.699090  3044.299331
    5975.0190  212344.800000  21097.707148  3052.299889
    5975.4640  212136.800000  21098.698362  3052.299831
    5975.9850  212007.800000  21102.701521  3053.300286
    5976.5060  212170.800000  21134.707846  3057.301337
    5977.0260  212207.800000  21153.703219  3062.299129
    5977.4730  212167.800000  21155.702080  3063.299096
    5977.9940  212167.800000  21168.695669  3065.300083
    5978.5150  212104.800000  21178.711278  3069.302976
    5979.0370  212346.800000  21214.709537  3072.300984
    5979.4830  212344.800000  21236.711712  3077.302399
    5980.0050  212242.800000  21234.705655  3076.301004
    5980.5260  212127.800000  21238.698598  3076.301068
    5980.9730  212368.800000  21279.696155  3081.299384
    5981.4950  212471.800000  21310.699567  3087.301084
    5982.0160  212373.800000  21307.708946  3088.300469
    5982.4630  212291.800000  21315.696866  3088.299894
    5982.9860  212495.800000  21348.708018  3092.300225
    5983.5070  212663.800000  21382.707080  3097.302325
    5984.0300  212611.800000  21389.710051  3097.300630
    5984.4770  212444.800000  21377.697163  3096.297955
    5984.9990  212498.800000  21402.705543  3099.300191
    5985.5210  211040.800000  21274.698009  3079.300558
    5985.9700  207963.800000  20970.695821  3034.297787
    5986.4920  199741.800000  20144.706164  2913.300213
    5987.0150  186238.800000  18790.693510  2717.299948
    5987.4630  184055.800000  18582.698739  2682.300904
    5987.9860  194056.800000  19602.691921  2823.298549
    5988.5090  201516.800000  20363.696916  2922.299343
    5989.0320  205523.800000  20774.698797  2966.298390
    5989.4800  207605.800000  20978.709482  2968.302051
    5990.0030  208936.800000  21104.701043  2926.299963
    5990.5260  209322.800000  21120.699067  2841.299614
    5990.9750  209476.800000  21101.708175  2770.301041
    5991.4990  209848.800000  21070.696240  2704.300467
    5992.0210  210147.800000  20993.693701  2645.298974
    5992.4710  210204.800000  20848.693691  2588.300010
    5992.9950  210145.800000  20530.705105  2512.299767
    5993.5180  210238.800000  19842.696948  2395.298907
    5993.9670  210338.800000  18781.691971  2243.299031
    5994.4920  210341.800000  17477.700769  2067.300865
    5995.0160  210299.800000  17488.703036  2053.299747
    5995.4650  210189.800000  18564.700074  2172.300908
    5995.9890  210340.800000  19851.708470  2317.300829
    5996.5140  210419.800000  20539.699675  2397.298751
    5996.9630  210263.800000  20772.706403  2425.301709
    5997.4880  210212.800000  20902.700287  2436.299649
    5998.0120  210226.800000  20959.708417  2428.301272
    5998.5380  210465.800000  20953.698488  2393.300007
    5998.9870  210358.800000  20894.702213  2354.300473
    5999.5130  210229.800000  20779.693133  2290.298637
    6000.0370  209914.800000  20621.696179  2225.299991
    6000.4870  209388.800000  20445.704486  2164.299626
    6001.0130  208378.800000  20195.697310  2094.300437
    6001.4620  207099.800000  19957.695388  2037.298779
    6001.9880  206437.800000  19775.704847  1984.299899
    6002.5130  207965.800000  19793.698770  1957.299355
    6002.9640  209177.800000  19783.704781  1934.300201
    6003.4900  209852.800000  19678.709840  1903.300211
    6004.0160  209894.800000  19491.694521  1865.299169
    6004.4660  209891.800000  19305.695574  1830.298668
    6004.9930  209850.800000  19075.710077  1791.300338
    6005.5180  210003.800000  18839.705281  1750.300742
    6005.9700  209931.800000  18605.694989  1715.299526
    6006.4960  209870.800000  18314.701597  1671.300563
    6007.0220  209684.800000  17994.703251  1627.300409
    6007.4730  209791.800000  17741.696619  1590.299893
    6008.0000  209873.800000  17426.697993  1546.299099
    6008.5260  209758.800000  17110.705139  1506.299980
    6008.9780  209646.800000  16867.694255  1471.299774
    6009.5040  209721.800000  16633.702206  1436.300758
    6010.0320  209773.800000  16433.695116  1407.299764
    6010.9360  209674.560000  16138.449852  1371.063361
    6011.8390  209602.840000  15955.721856  1366.357585
    6012.8180  209606.640000  15884.513348  1394.181677
    6013.7980  209706.950000  15879.803472  1429.533375
    6014.7780  209872.800000  15902.616142  1459.414945
    6015.7580  209952.160000  15930.948999  1472.827018
    6016.8150  210092.030000  15949.790157  1472.765127
    6017.7960  209943.420000  15934.141413  1461.235142
    6018.9290  209995.340000  15921.005532  1440.233625
    6019.9860  210418.780000  15929.388483  1425.761042
    6021.1200  210372.730000  15902.269934  1417.816287
    6022.1770  210390.200000  15873.672224  1418.400604
    6023.3880  210884.200000  15881.599385  1426.517512
    6024.5220  210875.720000  15868.038917  1434.162357
    6025.7330  211298.750000  15899.982504  1438.334733
    6026.8690  211622.300000  15944.438451  1435.037644
    6028.1570  211763.370000  16009.422770  1425.270289
    6029.3690  211882.970000  16087.910575  1420.031556
    6030.5820  212263.080000  16188.910143  1421.322035
    6031.8720  212504.700000  16287.421223  1425.141498
    6033.1610  213049.860000  16402.441945  1431.489088
    6034.5280  213417.530000  16494.986425  1440.366337
    6035.8190  213506.720000  16545.039149  1443.773695
    6037.1870  214154.420000  16630.616159  1448.711214
    6038.5550  214650.660000  16713.702123  1449.175638
    6040.0000  215253.410000  16809.294630  1451.171245
    6041.3700  215673.670000  16903.411716  1455.695041
    6042.8160  215978.450000  17023.038529  1470.748764
    6044.2640  216458.770000  17151.164814  1487.330780
    6045.7120  216885.590000  17273.818600  1506.442603
    6047.2370  217449.940000  17436.987407  1525.082738
    6048.7630  218080.800000  17572.666171  1544.251978
    6050.2890  218650.190000  17666.852555  1563.952306
    6051.8160  219172.090000  17790.564284  1592.181710
    6053.4220  219727.520000  17949.786725  1623.938275
    6054.9510  220152.450000  18091.518927  1656.225571
    6056.5570  220959.920000  18254.768391  1689.041702
    6058.2410  221626.910000  18410.522617  1717.386026
    6059.8490  222206.410000  18542.784260  1738.258456
    6061.5350  222318.420000  18635.580407  1755.663202
    6063.2220  222532.970000  18722.879345  1765.597695
    6064.9100  223185.030000  18843.690914  1772.059020
    6066.6760  223993.610000  18971.019489  1767.050062
    6068.3650  224852.700000  19096.871411  1762.570969
    6070.1330  225726.330000  19218.230549  1750.622320
    6071.9020  226515.470000  19326.094760  1741.199499
    6073.7490  227274.120000  19426.475769  1743.306968
    6075.5210  228144.300000  19538.371934  1761.945019
    6077.3690  228749.000000  19626.767682  1794.110458
    6079.2200  229730.220000  19758.695322  1829.807306
    6081.1490  230437.950000  19858.132656  1868.030428
    6083.0020  231571.200000  20000.082242  1909.786366
    6084.9340  232489.980000  20136.561188  1945.070314
    6086.8660  233738.280000  20305.525231  1970.879772
    6088.8000  234532.090000  20435.026685  1973.223348
    6090.8130  235354.420000  20587.035813  1953.095497
    6092.8270  236031.280000  20726.546922  1924.494505
    6094.8430  236543.660000  20850.580712  1893.423942
    6096.8590  237702.550000  21019.132663  1869.883449
    6098.8780  238936.950000  21194.181990  1852.869854
    6100.9750  240138.890000  21361.761209  1854.387521
    6103.0750  241599.340000  21539.850568  1876.433188
    6105.1750  242578.310000  21676.431972  1917.007902
    6107.2770  243742.810000  21817.548259  1972.111137
    6109.4590  244784.810000  21942.173116  2034.744988
    6111.6430  245979.340000  22086.323011  2093.908779
    6113.8270  247198.390000  22246.978744  2142.600359
    6116.0130  248461.970000  22417.138896  2180.821838
    6118.2800  249325.050000  22553.820313  2199.571276
    6120.4700  250359.660000  22714.023839  2211.852775
    6122.7400  251524.780000  22877.720053  2220.660143
    6125.0110  252881.440000  23073.961231  2236.000463
    6127.3630  254131.590000  23268.678916  2261.866152
    6129.6390  255198.280000  23441.942012  2296.264820
    6131.9950  256484.480000  23662.704431  2333.189361
    6134.3520  257660.220000  23865.973467  2366.643580
    6136.7900  258994.450000  24097.777899  2394.629766
    6139.1510  260111.220000  24302.064578  2413.141218
    6141.5940  261729.500000  24556.891500  2435.184510
    6144.0380  262865.310000  24777.222207  2454.756993
    6146.4840  264575.620000  25054.065465  2473.858576
    6148.9320  265801.470000  25288.422359  2481.488736
    6151.4620  267066.840000  25518.303121  2490.648116
    6153.9940  268434.720000  25767.673879  2508.333920
    6156.5280  269969.120000  26038.587752  2531.554604
    6159.0640  271408.030000  26299.984091  2541.301457
    6161.6030  272833.470000  26555.917629  2545.577676
    6164.2220  274085.440000  26806.352221  2542.383133
    6166.8440  275642.910000  27090.313368  2554.718966
    6169.4700  277467.910000  27403.788955  2599.583622
    6172.0960  278985.440000  27696.764300  2658.974691
    6174.8060  280400.470000  27972.246756  2723.894973
    6177.5170  281809.030000  28242.265795  2786.347624
    6180.2310  283426.090000  28550.783640  2849.328589
    6182.9480  284967.690000  28847.830921  2904.838530
    6185.6670  286604.810000  29156.366630  2954.877805
    6188.4690  288049.440000  29445.442140  2993.448694
    6191.2730  289931.590000  29774.013968  3034.543492
    6194.0810  291440.280000  30068.109151  3076.169375
    6196.8910  293095.470000  30385.708785  3119.327370
    6199.7030  294574.190000  30664.814502  3159.010640
    6202.5990  296676.410000  31017.452074  3206.227512
    6205.4980  298250.160000  31304.585783  3245.967957
    6208.3990  299741.440000  31584.239190  3293.241165
    6211.3040  301675.220000  31913.432677  3350.045769
    6214.2100  303385.530000  32221.095344  3400.373821
    6217.2020  304694.370000  32492.302289  3435.234560
    6220.1960  305963.720000  32757.027946  3458.626458
    6223.1930  308004.590000  33110.242826  3482.542691
    6226.1930  309727.970000  33424.975704  3498.990142
    6229.1960  311700.870000  33765.243612  3514.969956
    6232.2840  313705.310000  34121.989917  3526.475894
    6235.3750  313058.250000  34190.275976  3511.510460
    6238.4690  317934.720000  34868.089804  3557.076781
    6241.5650  310942.720000  34236.376363  3483.169709
    6244.7480  319588.220000  35348.195863  3591.792403
    6247.8520  322715.250000  35851.533997  3656.945936
    6251.0410  324648.780000  36233.384625  3731.629200
    6254.2330  326413.840000  36589.745522  3820.838970
    6257.4290  328652.440000  36999.625057  3921.580569
    6260.7100  330318.530000  37371.016023  3998.848447
    6263.9130  331666.160000  37688.911286  4055.645742
    6267.2020  333421.310000  38080.330367  4107.973682
    6270.4940  335451.970000  38500.251999  4157.827851
    6273.7900  337332.160000  38912.715854  4210.216548
    6277.1720  339191.840000  39318.645518  4269.129093
    6280.4750  341717.090000  39813.146527  4334.577628
    6283.8650  343640.810000  40236.114174  4391.548748
    6287.2580  346030.090000  40725.634586  4448.054175
    6290.6550  347966.840000  41148.611653  4501.083690
    6294.0560  349849.160000  41598.166433  4557.649774
    6297.5440  352032.970000  42055.191375  4628.736034
    6300.9540  353831.310000  42501.750960  4698.358884
    6304.4500  355828.190000  42966.811925  4764.506681
    6307.9500  357460.560000  43381.367748  4822.184467
    6311.5380  359910.440000  43907.459360  4890.390821
    6315.0470  361787.870000  44361.103828  4938.131622
    6318.5600  363637.810000  44816.184924  4981.391874
    6322.1610  365626.250000  45298.849589  5023.187221
    6325.7660  368021.220000  45828.978050  5073.513621
    6329.3750  370174.720000  46336.644707  5128.366105
    6333.0730  372031.750000  46806.833166  5179.752111
    6336.6910  374325.280000  47326.488629  5242.660781
    6340.3970  376568.310000  47849.729512  5313.105292
    6344.1090  378735.910000  48372.436360  5394.075139
    6347.8260  381157.000000  48932.674510  5479.574017
    6351.5460  383240.590000  49441.391812  5558.598256
    6355.2710  385258.720000  49933.649222  5638.156264
    6359.0850  387496.370000  50480.417107  5722.240823
    6362.8190  389651.560000  50985.735824  5816.861784
    6366.6450  391385.250000  51467.491174  5908.005934
    6370.4730  393621.440000  52025.794062  5995.676554
    6374.3070  395942.190000  52577.654798  6082.885765
    6378.2300  397954.440000  53118.991856  6155.620250
    6382.0750  399937.190000  53644.852031  6221.882476
    6386.0090  401843.500000  54167.208132  6292.671544
    6389.9480  404671.280000  54811.064648  6382.992832
    6393.8930  406196.620000  55300.465604  6457.842787
    6397.8420  409001.470000  55978.391498  6550.220742
    6401.8820  410610.840000  56486.795599  6622.128902
    6405.8430  413646.720000  57185.723393  6716.567774
    6409.8940  415283.120000  57720.159919  6791.531745
    6413.9500  417679.030000  58356.121704  6884.030210
    6418.0130  419674.500000  58958.594583  6971.053846
    6422.0810  422102.440000  59617.611977  7074.607984
    6426.1530  424529.940000  60276.091544  7165.691255
    6430.3180  426677.940000  60893.137874  7249.311434
    6434.4020  429021.470000  61566.627619  7332.444584
    6438.5790  431158.500000  62216.657659  7412.114616
    6442.7610  433119.060000  62849.228240  7497.320242
    6446.9490  435233.120000  63497.326052  7594.048099
    6451.2300  437388.750000  64177.866183  7709.307674
    6455.4300  439694.840000  64870.951885  7823.092532
    6459.7230  442069.500000  65582.579845  7945.407665
    6463.9340  444312.660000  66266.699684  8050.252874
    6468.2390  446884.340000  67050.348943  8174.632927
    6472.5500  449265.530000  67791.518672  8281.541262
    6476.9550  451166.250000  68453.172397  8390.976455
    6481.2780  453404.500000  69190.368059  8505.939320
    6485.6070  455831.250000  69952.026769  8627.430111
    6490.0310  458369.530000  70722.211769  8747.445307
    6494.4610  461007.310000  71535.934202  8863.997959
    6498.8980  462932.620000  72240.188202  8966.079516
    6503.3410  465118.470000  72987.934549  9079.690874
    6507.7900  467604.810000  73794.227922  9199.834696
    6512.3350  470066.690000  74594.932672  9329.492120
    6516.7970  472438.090000  75378.245480  9461.687141
    6521.3550  474997.000000  76198.020771  9599.408560
    6525.9200  476971.440000  76953.366990  9724.676410
    6530.4920  479624.370000  77799.206744  9861.460043
    6535.0690  481865.840000  78586.563349  9988.772728
    6539.6550  483592.840000  79314.369222  10100.614999
    6544.2470  485100.340000  80014.731073  10205.979318
    6548.9360  486127.370000  80628.619550  10303.881488
    6553.5410  488334.940000  81441.056290  10424.319845
    6558.2440  490742.000000  82296.907534  10555.272852
    6562.9540  492525.590000  83031.364226  10678.767440
    6567.6710  494809.690000  83888.306038  10820.789354
    6572.3950  496953.310000  84709.781413  10954.332915
    6577.2180  500247.470000  85748.699177  11122.409155
    6581.9560  502895.120000  86688.188417  11280.015717
    6586.7920  505114.310000  87554.176354  11424.141139
    6591.5460  507491.030000  88452.707963  11578.813849
    6596.3970  509119.250000  89240.705218  11713.010963
    6601.2570  511365.000000  90112.205441  11861.722522
    6606.1250  514034.250000  91081.243823  12016.970962
    6611.0910  516270.030000  91975.840799  12165.766009
    6615.9730  518599.340000  92927.869964  12320.069514
    6620.9550  520769.190000  93840.537312  12473.918321
    6625.8530  522031.500000  94568.641026  12598.287990
    6630.8500  524031.370000  95477.207009  12755.181088
    6635.8550  525956.750000  96368.365112  12898.602666
    6640.8690  528654.690000  97436.945775  13076.561887
    6645.8910  530824.060000  98361.122480  13249.047052
    6650.9190  532579.000000  99231.771813  13402.057546
    6655.9570  534630.500000  100153.985245  13562.597959
    6661.0960  536359.440000  101052.636377  13715.677660
    6666.1500  539354.940000  102187.858562  13914.269133
    6671.3050  541684.000000  103212.586269  14085.400080
    6676.4690  542994.500000  104027.802066  14235.063634
    6681.6420  545123.560000  105020.596132  14400.263205
    6686.8220  547072.120000  105994.864006  14566.984613
    6692.0110  549226.250000  106993.648143  14747.232964
    6697.3030  547870.870000  107356.880944  14831.000530
    6702.5090  523930.000000  103407.768272  14316.319175
    6707.7240  568369.620000  112618.043435  15623.152467
    6713.0420  563850.810000  112343.899178  15621.523818
    6718.3690  563837.500000  112971.219255  15747.412868
    6723.7050  564895.750000  113820.107864  15906.839928
    6729.0490  565901.440000  114674.413815  16064.774067
    6734.4030  566325.690000  115405.306521  16225.260805
    6739.7660  573370.500000  117521.712603  16557.267091
    6745.1370  571181.750000  117739.606353  16631.815547
    6750.6140  557886.560000  115470.102567  16357.894817
    6756.0030  570474.940000  118932.040525  16890.481560
    6761.4980  566721.750000  119016.417114  16946.603708
    6766.9060  580713.120000  122465.439732  17484.274301
    6772.4200  569344.000000  120830.872617  17291.444141
    6777.9430  585008.440000  124800.850957  17916.163146
    6783.4760  585737.370000  125642.367128  18086.404348
    6789.0180  586916.810000  126636.412795  18281.179521
    6794.5690  587239.750000  127415.980276  18440.496984
    6800.2280  585093.250000  127688.951006  18533.320798
    6805.7990  554653.250000  121778.539323  17723.689662
    6811.4770  605068.810000  133567.662827  19492.585980
    6817.0670  602504.870000  133781.215882  19572.993791
    6822.7650  602966.440000  134658.310971  19756.934430
    6828.4730  604269.500000  135730.905616  19969.423735
    6834.1900  605170.120000  136711.054673  20161.434745
    6839.9180  607186.250000  137964.800102  20393.976362
    6845.6560  608398.870000  139021.931749  20599.044744
    6851.4050  610053.000000  140199.560339  20821.640170
    6857.1630  611794.690000  141418.665878  21056.741126
    6863.0310  613071.940000  142524.410431  21288.399210
    6868.8100  615852.620000  144027.705685  21569.594946
    6874.6980  616997.870000  145146.354058  21792.297283
    6880.4980  619261.620000  146480.576028  22056.532860
    6886.4070  620672.940000  147685.391271  22295.308530
    6892.3270  621568.690000  148768.651942  22518.617866
    6898.2580  624278.060000  150249.444778  22808.445364
    6904.2000  625770.870000  151507.674697  23049.804359
    6910.1520  626904.250000  152660.548245  23297.704063
    6916.1150  628883.120000  154031.853306  23566.104289
    6922.0890  630059.500000  155188.616749  23805.038486
    6928.1750  631119.440000  156365.955952  24052.504575
    6934.1710  632846.870000  157713.876220  24321.518205
    6940.2790  634885.810000  159171.327883  24609.072012
    6946.2960  636095.310000  160346.068982  24864.110307
    6952.4280  637741.310000  161684.471776  25141.697705
    6958.5690  638670.810000  162842.448103  25381.845067
    6964.6200  639882.810000  164128.892695  25647.498698
    6970.7850  641820.370000  165546.888192  25927.662969
    6976.9600  643520.440000  166905.334152  26212.379268
    6983.1470  644604.060000  168182.259251  26473.606826
    6989.3470  646159.190000  169500.673044  26758.358654
    6995.6610  647267.810000  170777.772393  27024.669517
    7001.8820  649152.940000  172245.251805  27326.511380
    7008.1160  650313.620000  173526.224676  27599.861065
    7014.4650  652054.810000  174960.742959  27898.742686
    7020.7220  653480.500000  176325.848160  28189.137066
    7027.0960  654667.750000  177654.358263  28470.084093
    7033.3760  655818.500000  178925.420511  28753.545283
    7039.7740  657489.750000  180390.180545  29063.589609
    7046.1830  658383.560000  181651.257161  29354.113196
    7052.6040  659809.870000  183055.743869  29655.147459
    7059.0390  660870.690000  184367.895391  29948.738183
    7065.4840  662721.000000  185910.632373  30277.870136
    7071.9420  664134.870000  187330.839024  30588.534412
    7078.4130  665463.250000  188779.452308  30905.693255
    7084.8960  666426.190000  190085.579809  31195.391975
    7091.3910  667464.620000  191453.390074  31495.648238
    7097.8990  668443.560000  192802.618816  31799.417282
    7104.5260  669773.000000  194218.312593  32131.692521
    7111.0590  670383.000000  195493.511741  32422.485884

