# XDI/1.0
# Column.1: energy eV
# Column.2: i0
# Column.3: itrans
# Column.4: irefer
# Beamline.name: SSRL 2-3
# Beamline.notes: vert slits = 0.6mm
# Detector.I0: N2 15cm
# Detector.I1: N2 30cm
# Detector.I2: N2 15cm
# Element.edge: K
# Element.symbol: Cr
# Mono.d_spacing: 3.13550
# Mono.name: Si(111)
# Mono.notes: unfocused, detuned 75%, clockwise at E=5990eV
# Sample.formula: Na2CrO4
# Sample.name: Na2CrO4
# Sample.prep: powder on tape (4 layers)
# Sample.reference: Cr foil
# Sample.temperature: room temp
# Scan.start_time: 1997-04-17 23:39:33
# ///
#    Note: mono d_spacing is nominal!
#     exafs to K16
#     396  E XMU XMUR I0
#-------------
#   energy   i0   itrans  irefer
    5759.9890  24927.900000  18172.499923  2309.699566
    5769.9800  24891.900000  18470.499715  2363.699200
    5780.0070  24856.900000  18770.499840  2418.700663
    5790.0030  24830.900000  19093.499663  2475.699408
    5799.9650  24784.900000  19392.500066  2529.699186
    5810.0340  24761.900000  19710.499859  2584.700089
    5820.0000  24727.900000  20035.499213  2643.700554
    5830.0020  24702.900000  20367.499031  2705.699423
    5839.9710  24674.900000  20694.499341  2765.700457
    5849.9750  24651.900000  21033.499408  2828.700380
    5860.0160  24615.900000  21359.499360  2889.699668
    5870.0220  24584.900000  21695.499296  2951.698695
    5879.9930  24543.900000  22023.499687  3015.700227
    5890.0000  24505.900000  22368.499904  3080.699603
    5899.9710  24457.900000  22692.499970  3144.699925
    5909.9780  24405.900000  23019.500081  3208.699409
    5920.0210  24355.900000  23349.499985  3272.700778
    5930.0260  24312.900000  23680.499977  3338.701382
    5939.9950  24260.900000  24006.500094  3403.698488
    5949.9990  24217.900000  24339.500003  3468.698825
    5959.9650  24179.900000  24677.500055  3533.701480
    5969.9670  24111.900000  24977.500123  3595.699056
    5970.4870  24112.900000  25003.500048  3599.701110
    5971.0060  24055.900000  24960.500084  3594.700145
    5971.5260  23922.900000  24836.500095  3577.700763
    5971.9720  23805.900000  24717.500107  3560.701226
    5972.4920  23766.900000  24704.500077  3556.700952
    5973.0120  23859.900000  24811.500004  3572.698725
    5973.5320  24017.900000  25000.500025  3603.699028
    5973.9780  24104.900000  25111.500020  3617.701608
    5974.4980  24150.900000  25180.500026  3627.700174
    5975.0190  24151.900000  25196.499898  3630.698638
    5975.4640  24142.900000  25200.499885  3632.698756
    5975.9850  24140.900000  25218.499882  3635.700665
    5976.5060  24155.900000  25253.499917  3641.700550
    5977.0260  24158.900000  25273.499906  3644.701293
    5977.4730  24134.900000  25275.499966  3643.699624
    5977.9940  24131.900000  25281.500094  3645.698235
    5978.5150  24150.900000  25316.499985  3651.698334
    5979.0370  24149.900000  25339.499905  3655.699437
    5979.4830  24126.900000  25332.500108  3654.700549
    5980.0050  24131.900000  25350.500076  3657.699715
    5980.5260  24154.900000  25395.499875  3664.698210
    5980.9730  24155.900000  25418.500033  3668.699563
    5981.4950  24134.900000  25418.500010  3664.699191
    5982.0160  24154.900000  25443.500011  3671.698304
    5982.4630  24171.900000  25473.499882  3675.700370
    5982.9860  24188.900000  25517.499973  3682.701147
    5983.5070  24162.900000  25500.499979  3681.701682
    5984.0300  24181.900000  25540.500048  3683.699070
    5984.4770  24183.900000  25555.500123  3685.700352
    5984.9990  24154.900000  25543.499921  3684.699141
    5985.5210  23988.900000  25390.499874  3661.698400
    5985.9700  23719.900000  25107.500050  3618.699142
    5986.4920  22979.900000  24326.499992  3502.700669
    5987.0150  21482.900000  22748.500016  3273.701199
    5987.4630  20895.900000  22131.500098  3181.700930
    5987.9860  21927.900000  23247.499982  3334.699594
    5988.5090  22852.900000  24231.500104  3465.699347
    5989.0320  23296.900000  24706.499941  3516.701106
    5989.4800  23520.900000  24939.499892  3522.700516
    5990.0030  23697.900000  25114.499951  3486.698732
    5990.5260  23790.900000  25174.499929  3392.698338
    5990.9750  23826.900000  25172.499892  3306.701360
    5991.4990  23845.900000  25101.499987  3222.700281
    5992.0210  23860.900000  24967.499922  3143.698509
    5992.4710  23889.900000  24820.500021  3080.700251
    5992.9950  23904.900000  24444.499929  2989.700571
    5993.5180  23880.900000  23585.499996  2846.699111
    5993.9670  23881.900000  22237.499930  2656.700794
    5994.4920  23910.900000  20367.500585  2408.700817
    5995.0160  23924.900000  19927.499408  2336.699953
    5995.4650  23905.900000  21161.499946  2471.700784
    5995.9890  23889.900000  23028.499913  2679.699270
    5996.5140  23907.900000  24153.500027  2811.700044
    5996.9630  23917.900000  24583.499911  2860.700379
    5997.4880  23901.900000  24787.499996  2881.700276
    5998.0120  23892.900000  24867.500090  2875.698881
    5998.5380  23899.900000  24877.500107  2846.701014
    5998.9870  23897.900000  24802.500110  2796.700862
    5999.5130  23871.900000  24656.499941  2721.699646
    6000.0370  23858.900000  24481.500075  2643.700746
    6000.4870  23832.900000  24283.500041  2576.698966
    6001.0130  23739.900000  23985.499899  2491.700669
    6001.4620  23598.900000  23684.500001  2419.700630
    6001.9880  23509.900000  23440.500012  2354.699918
    6002.5130  23600.900000  23371.499990  2315.700725
    6002.9640  23744.900000  23374.499907  2287.699393
    6003.4900  23845.900000  23270.500019  2252.699928
    6004.0160  23879.900000  23068.500008  2206.699700
    6004.4660  23879.900000  22854.499918  2168.700263
    6004.9930  23885.900000  22571.499958  2119.701012
    6005.5180  23873.900000  22241.499975  2069.700502
    6005.9700  23847.900000  21925.500003  2024.699599
    6006.4960  23863.900000  21586.500809  1973.700401
    6007.0220  23877.900000  21190.499511  1916.699976
    6007.4730  23865.900000  20832.499888  1870.699195
    6008.0000  23838.900000  20379.500134  1812.700097
    6008.5260  23855.900000  19977.500518  1759.700574
    6008.9780  23862.900000  19669.500766  1717.700112
    6009.5040  23856.900000  19349.500084  1675.699322
    6010.0320  23849.900000  19068.499342  1635.699799
    6010.9360  23854.664000  18661.255083  1583.464952
    6011.8390  23872.951000  18366.520344  1566.757913
    6012.8180  23863.768000  18221.296100  1591.581260
    6013.7980  23838.107000  18161.584738  1628.932080
    6014.7780  23851.975000  18148.380410  1661.811584
    6015.7580  23883.367000  18174.688334  1679.222477
    6016.8150  23899.285000  18190.506592  1681.159682
    6017.7960  23903.730000  18160.834299  1664.627399
    6018.9290  23912.701000  18117.674262  1638.624123
    6019.9860  23934.197000  18098.020598  1622.148610
    6021.1200  23964.219000  18109.881760  1612.203284
    6022.1770  23978.768000  18107.251115  1614.786052
    6023.3880  23994.842000  18110.132542  1627.896337
    6024.5220  24025.441000  18098.522599  1634.538188
    6025.7330  24062.566000  18097.424854  1637.707921
    6026.8690  24095.219000  18125.836277  1631.407826
    6028.1570  24104.396000  18167.758834  1618.635533
    6029.3690  24142.100000  18269.191279  1614.391498
    6030.5820  24188.330000  18385.135511  1617.677511
    6031.8720  24239.086000  18503.587907  1619.492218
    6033.1610  24263.367000  18587.551492  1623.837349
    6034.5280  24289.174000  18652.025324  1625.708526
    6035.8190  24332.508000  18712.009446  1633.110591
    6037.1870  24393.367000  18774.505350  1635.042587
    6038.5550  24440.752000  18832.511344  1634.501235
    6040.0000  24490.664000  18894.027819  1630.490490
    6041.3700  24498.102000  18986.054674  1636.007373
    6042.8160  24570.064000  19184.590743  1655.053594
    6044.2640  24624.553000  19391.639792  1681.630796
    6045.7120  24686.568000  19599.194923  1706.733808
    6047.2370  24726.109000  19811.263308  1732.368643
    6048.7630  24778.176000  19989.844423  1757.529915
    6050.2890  24843.768000  20105.932814  1781.220737
    6051.8160  24915.887000  20246.530229  1810.442756
    6053.4220  24994.531000  20460.642053  1850.191488
    6054.9510  25053.701000  20635.262023  1887.468213
    6056.5570  25112.398000  20813.394971  1924.277877
    6058.2410  25171.621000  20983.034057  1955.612041
    6059.8490  25235.369000  21148.186185  1984.478466
    6061.5350  25275.643000  21274.847465  2006.872429
    6063.2220  25315.443000  21394.021306  2020.796023
    6064.9100  25380.770000  21535.705976  2027.248187
    6066.6760  25455.621000  21674.897269  2022.229839
    6068.3650  25532.000000  21816.602607  2017.738374
    6070.1330  25627.904000  21953.815644  2002.777481
    6071.9020  25733.332000  22095.540847  1992.345956
    6073.7490  25828.289000  22225.775282  1991.441332
    6075.5210  25902.770000  22334.521098  2014.067910
    6077.3690  26001.777000  22450.776057  2049.221945
    6079.2200  26086.313000  22567.544062  2088.906599
    6081.1490  26212.371000  22732.819537  2137.119031
    6083.0020  26323.957000  22875.609076  2181.861119
    6084.9340  26418.068000  23003.906975  2221.129988
    6086.8660  26506.705000  23137.716151  2244.931526
    6088.8000  26589.867000  23290.033059  2249.260518
    6090.8130  26699.557000  23461.863508  2229.116399
    6092.8270  26821.771000  23660.202292  2198.502416
    6094.8430  26924.512000  23832.052026  2163.418043
    6096.8590  27056.779000  24024.414494  2135.864716
    6098.8780  27146.572000  24184.283424  2112.837809
    6100.9750  27275.891000  24358.666463  2110.339212
    6103.0750  27402.736000  24522.556376  2133.371010
    6105.1750  27516.105000  24663.960021  2176.930963
    6107.2770  27635.002000  24797.872363  2238.020697
    6109.4590  27781.426000  24963.295547  2307.638178
    6111.6430  27880.373000  25106.228545  2373.785562
    6113.8270  28028.848000  25275.672339  2430.462007
    6116.0130  28150.848000  25450.626980  2471.665904
    6118.2800  28275.375000  25623.091958  2494.401884
    6120.4700  28389.426000  25794.065908  2508.664304
    6122.7400  28530.004000  25994.552983  2522.455963
    6125.0110  28662.107000  26180.548904  2535.776056
    6127.3630  28798.738000  26389.057002  2564.627943
    6129.6390  28938.895000  26616.072111  2602.004860
    6131.9950  29088.576000  26858.600058  2644.912728
    6134.3520  29236.783000  27112.636977  2686.348747
    6136.7900  29388.518000  27388.186036  2720.315194
    6139.1510  29528.775000  27644.243971  2744.811855
    6141.5940  29674.561000  27918.813953  2766.834251
    6144.0380  29828.873000  28195.894918  2790.387282
    6146.4840  29956.711000  28447.484060  2805.468990
    6148.9320  30087.074000  28716.583963  2815.080321
    6151.4620  30245.963000  29004.194894  2827.218797
    6153.9940  30418.377000  29323.316143  2854.889026
    6156.5280  30557.318000  29588.949049  2876.084869
    6159.0640  30706.785000  29881.090033  2892.811423
    6161.6030  30865.777000  30175.742094  2890.066059
    6164.2220  31018.297000  30474.905857  2886.851859
    6166.8440  31189.342000  30808.580039  2904.165901
    6169.4700  31323.912000  31092.764007  2945.006792
    6172.0960  31510.010000  31431.458993  3014.380300
    6174.8060  31663.631000  31754.661999  3086.280207
    6177.5170  31829.781000  32075.379015  3161.709072
    6180.2310  32011.455000  32416.603897  3235.665927
    6182.9480  32191.654000  32767.339961  3299.154707
    6185.6670  32337.381000  33074.586154  3348.170903
    6188.4690  32516.633000  33417.343880  3392.713498
    6191.2730  32705.412000  33769.613147  3438.789015
    6194.0810  32856.715000  34078.390988  3480.390458
    6196.8910  33040.547000  34426.679967  3527.522715
    6199.7030  33224.902000  34766.476899  3578.184737
    6202.5990  33423.781000  35133.784981  3626.373825
    6205.4980  33586.191000  35448.604977  3673.092317
    6208.3990  33791.125000  35806.934080  3729.341081
    6211.3040  33950.582000  36115.777030  3788.119822
    6214.2100  34141.570000  36458.125062  3845.425821
    6217.2020  34322.082000  36807.988010  3890.259586
    6220.1960  34507.117000  37150.358925  3921.622349
    6223.1930  34708.680000  37507.241829  3944.515093
    6226.1930  34913.770000  37877.637079  3963.937650
    6229.1960  35090.387000  38215.538821  3974.886556
    6232.2840  35318.527000  38613.953101  3986.368597
    6235.3750  35287.195000  38735.874885  3974.377652
    6238.4690  35802.387000  39471.309142  4025.914368
    6241.5650  35004.105000  38734.254600  3938.978164
    6244.7480  35934.352000  39948.711473  4057.574650
    6247.8520  36257.121000  40486.674828  4127.698152
    6251.0410  36469.418000  40898.150680  4209.352546
    6254.2330  36663.242000  41315.142232  4309.535272
    6257.4290  36883.590000  41752.638073  4418.245346
    6260.7100  37110.465000  42202.645359  4516.488924
    6263.9130  37297.863000  42609.159112  4582.254990
    6267.2020  37516.789000  43082.187967  4642.553970
    6270.4940  37729.242000  43536.725386  4698.380353
    6273.7900  37942.219000  44001.778338  4755.738765
    6277.1720  38155.727000  44480.334245  4823.622320
    6280.4750  38359.754000  44934.403984  4888.036734
    6283.8650  38594.313000  45461.987354  4951.980185
    6287.2580  38793.391000  45921.076610  5007.451971
    6290.6550  39011.000000  46413.680663  5069.454700
    6294.0560  39245.133000  46928.794230  5136.980403
    6297.5440  39451.793000  47425.411669  5216.043666
    6300.9540  39612.980000  47849.546596  5288.632164
    6304.4500  39809.691000  48355.190807  5361.745500
    6307.9500  40070.930000  48930.343904  5435.392493
    6311.5380  40284.691000  49457.005721  5504.564851
    6315.0470  40546.980000  50049.183995  5569.271201
    6318.5600  40767.797000  50568.865498  5621.503082
    6322.1610  41000.137000  51130.061308  5665.264639
    6325.7660  41234.004000  51683.767417  5719.553574
    6329.3750  41501.398000  52270.983767  5784.375559
    6333.0730  41695.316000  52798.711994  5843.721262
    6336.6910  41929.762000  53350.950027  5911.601553
    6340.3970  42161.730000  53933.695852  5990.006142
    6344.1090  42403.230000  54520.950387  6074.945625
    6347.8260  42623.254000  55065.725061  6159.406792
    6351.5460  42888.801000  55692.001830  6260.402893
    6355.2710  43130.875000  56283.791470  6353.924147
    6359.0850  43337.477000  56825.091520  6445.975485
    6362.8190  43551.602000  57382.896465  6544.554226
    6366.6450  43820.254000  57998.220590  6657.661725
    6370.4730  44045.434000  58594.052138  6754.299007
    6374.3070  44271.137000  59177.389199  6844.466597
    6378.2300  44511.367000  59803.243269  6928.164358
    6382.0750  44707.121000  60360.607316  7002.391233
    6386.0090  44950.406000  60978.478664  7087.147931
    6389.9480  45179.211000  61608.863453  7176.427865
    6393.8930  45406.547000  62226.758095  7270.238534
    6397.8420  45670.406000  62915.157789  7365.582352
    6401.8820  45923.793000  63577.074961  7457.445645
    6405.8430  46146.703000  64224.497406  7541.844023
    6409.8940  46394.141000  64923.436765  7638.778282
    6413.9500  46657.105000  65622.880293  7736.229468
    6418.0130  46849.594000  66276.835214  7836.218961
    6422.0810  47120.609000  67006.307966  7947.733262
    6426.1530  47343.148000  67676.283404  8045.780557
    6430.3180  47554.219000  68357.768388  8138.348014
    6434.4020  47802.809000  69083.768429  8227.447358
    6438.5790  48005.930000  69760.269647  8311.080670
    6442.7610  48282.574000  70559.294200  8418.245291
    6446.9490  48530.746000  71301.818730  8530.933862
    6451.2300  48748.441000  72018.859156  8651.147901
    6455.4300  48970.664000  72742.413945  8772.892986
    6459.7230  49245.414000  73601.466185  8917.172808
    6463.9340  49497.688000  74402.047484  9041.973530
    6468.2390  49720.488000  75130.122851  9160.305975
    6472.5500  49948.816000  75892.715218  9271.171075
    6476.9550  50206.668000  76751.823609  9403.558172
    6481.2780  50456.047000  77562.433133  9531.481870
    6485.6070  50684.949000  78332.556047  9660.933727
    6490.0310  50934.379000  79175.184124  9788.908098
    6494.4610  51153.336000  79970.339543  9905.417307
    6498.8980  51407.820000  80807.986298  10026.452004
    6503.3410  51634.828000  81632.144006  10145.011492
    6507.7900  51906.359000  82510.825817  10280.105337
    6512.3350  52091.422000  83287.017967  10414.735625
    6516.7970  52301.008000  84085.710717  10545.884028
    6521.3550  52571.117000  84976.917643  10696.565006
    6525.9200  52815.754000  85852.629632  10838.777549
    6530.4920  53087.918000  86761.855247  10989.519758
    6535.0690  53322.609000  87659.599404  11128.786449
    6539.6550  53537.824000  88492.844422  11262.579647
    6544.2470  53700.566000  89239.604840  11377.900729
    6548.9360  53936.832000  90120.871329  11503.758224
    6553.5410  54124.625000  90943.656725  11630.141786
    6558.2440  54373.945000  91849.942618  11768.061236
    6562.9540  54584.789000  92731.744210  11907.492861
    6567.6710  54799.160000  93600.054465  12051.473871
    6572.3950  55086.059000  94618.874146  12217.971865
    6577.2180  55329.480000  95560.213696  12375.993137
    6581.9560  55543.430000  96446.055074  12522.560246
    6586.7920  55806.902000  97459.407063  12689.640520
    6591.5460  56026.906000  98384.270598  12854.255703
    6596.3970  56217.430000  99277.638183  13002.392138
    6601.2570  56453.484000  100247.527950  13165.073910
    6606.1250  56729.063000  101303.924753  13338.280770
    6611.0910  56928.168000  102234.823919  13493.004454
    6615.9730  57167.797000  103202.239185  13652.266480
    6620.9550  57426.953000  104279.162480  13829.051459
    6625.8530  57557.637000  105089.600920  13976.373940
    6630.8500  57858.844000  106261.551308  14165.217956
    6635.8550  58063.578000  107241.004761  14334.592652
    6640.8690  58296.836000  108280.980602  14513.503920
    6645.8910  58512.625000  109281.447652  14694.931566
    6650.9190  58684.934000  110237.434264  14860.898962
    6655.9570  58852.773000  111154.936501  15025.399249
    6661.0960  59161.137000  112351.950199  15233.414794
    6666.1500  59391.027000  113431.468676  15422.968423
    6671.3050  59584.441000  114395.504626  15592.043981
    6676.4690  59759.383000  115370.041672  15762.642097
    6681.6420  59936.848000  116385.083049  15935.787634
    6686.8220  60082.844000  117318.650723  16105.450309
    6692.0110  60204.363000  118187.721998  16265.645162
    6697.3030  60077.406000  118618.306634  16364.376879
    6702.5090  57271.977000  113759.394849  15732.626019
    6707.7240  62465.074000  124717.001742  17286.402063
    6713.0420  61969.699000  124483.121916  17292.711978
    6718.3690  61933.848000  125096.738712  17419.553640
    6723.7050  62008.523000  125935.874308  17581.915464
    6729.0490  62066.723000  126763.517509  17736.812531
    6734.4030  62056.449000  127501.666941  17898.240977
    6739.7660  62752.703000  129633.346334  18241.205123
    6745.1370  62617.480000  130116.522036  18361.688962
    6750.6140  61696.785000  128872.200897  18243.707437
    6756.0030  62265.617000  130865.395461  18577.241929
    6761.4980  62419.973000  131972.108932  18784.322348
    6766.9060  63633.855000  135256.332866  19301.903926
    6772.4200  62288.262000  133231.044415  19061.046402
    6777.9430  64114.195000  137870.300293  19772.703793
    6783.4760  64173.656000  138755.041042  19962.890675
    6789.0180  64182.641000  139552.292092  20128.593869
    6794.5690  64264.152000  140552.075483  20335.844423
    6800.2280  63958.191000  140624.357529  20399.618593
    6805.7990  61652.754000  136519.136665  19858.930400
    6811.4770  66479.844000  147886.458047  21562.761106
    6817.0670  66024.461000  147724.269848  21593.114583
    6822.7650  66007.602000  148571.573300  21780.015240
    6828.4730  66099.273000  149607.402805  21987.421686
    6834.1900  66204.461000  150713.750759  22208.372277
    6839.9180  66350.180000  151890.607411  22434.850454
    6845.6560  66499.430000  153116.975679  22670.854940
    6851.4050  66667.195000  154387.843834  22916.402095
    6857.1630  66819.492000  155628.231924  23158.457171
    6863.0310  66854.320000  156616.121264  23369.055291
    6868.8100  67070.664000  158039.523451  23648.156205
    6874.6980  67225.547000  159333.460028  23897.819942
    6880.4980  67347.945000  160573.870680  24156.007095
    6886.4070  67477.867000  161789.813908  24404.707593
    6892.3270  67670.320000  163200.267083  24685.945635
    6898.2580  67764.305000  164380.223666  24932.699662
    6904.2000  67916.805000  165685.680134  25200.012745
    6910.1520  67897.836000  166586.678185  25403.825265
    6916.1150  68032.391000  167903.150827  25674.193155
    6922.0890  67895.477000  168508.150523  25842.052831
    6928.1750  67978.078000  169751.664306  26100.476499
    6934.1710  68142.219000  171078.681603  26381.409514
    6940.2790  68254.875000  172366.213231  26655.895885
    6946.2960  68322.063000  173550.260820  26900.886600
    6952.4280  68432.773000  174857.813136  27185.402251
    6958.5690  68591.016000  176244.875141  27486.455720
    6964.6200  68707.773000  177497.448991  27742.047899
    6970.7850  68835.070000  178877.524939  28031.176956
    6976.9600  68943.883000  180176.132049  28299.804142
    6983.1470  69081.227000  181590.239075  28596.968484
    6989.3470  69170.094000  182901.837457  28871.692060
    6995.6610  69276.484000  184220.961047  29154.897600
    7001.8820  69421.406000  185684.605254  29464.659548
    7008.1160  69532.852000  186979.751742  29746.971591
    7014.4650  69665.820000  188374.407216  30041.762896
    7020.7220  69756.320000  189716.532881  30339.121730
    7027.0960  69836.344000  190967.176394  30604.974525
    7033.3760  69949.891000  192327.402829  30911.402935
    7039.7740  70110.969000  193875.123453  31242.341004
    7046.1830  70130.570000  195002.385199  31499.787201
    7052.6040  70258.695000  196443.149278  31824.806770
    7059.0390  70355.344000  197777.318492  32121.312278
    7065.4840  70448.523000  199123.109252  32439.352623
    7071.9420  70494.227000  200339.378297  32712.943326
    7078.4130  70616.461000  201802.051921  33032.049131
    7084.8960  70689.219000  203142.371749  33348.676015
    7091.3910  70777.500000  204509.034621  33662.826374
    7097.8990  70833.305000  205810.388284  33951.542916
    7104.5260  70880.641000  207119.174476  34257.734009
    7111.0590  70937.500000  208419.569220  34557.520884

