# XDI/1.0
# Column.1: energy eV
# Column.2: i0
# Column.3: itrans
# Beamline.name: APS 13ID
# Beamline.notes: vert slits = 0.3mm
# Detector.I0: N2 10cm
# Detector.I1: N2 10cm
# Element.edge: K
# Element.symbol: Ni
# Mono.d_spacing: 3.13550
# Mono.name: Si(111)
# Mono.notes: focussed, detuned 50%
# Sample.formula: Ni
# Sample.name: Ni foil  Room Temperature
# Sample.prep: metal foil
# Sample.reference: none
# Sample.temperature: Room Temperature
# Scan.start_time: 2001-06-26 21:58:18
# ///
#    Note: mono d_spacing is nominal!
#     data from ni_foil.001
#     418 E XMU I0
#-------------
#   energy   i0   itrans
    8133.0000  156031.700000  508820.087672
    8143.0000  149558.700000  489182.122070
    8153.0000  128783.700000  422729.101908
    8163.0000  120288.700000  396189.085818
    8173.0000  117444.700000  388217.086520
    8183.0000  117574.700000  387413.104140
    8193.0000  116768.700000  388856.101061
    8203.0000  116596.700000  389765.108441
    8213.0000  116586.700000  391436.107246
    8223.0000  115911.700000  390039.101496
    8233.0000  116117.700000  392733.094333
    8243.0000  116896.700000  396900.110749
    8253.0000  116780.700000  394427.093957
    8263.0000  116133.700000  396974.089810
    8273.0000  116201.700000  398288.084664
    8283.0000  115843.700000  398381.093590
    8293.0000  115150.700000  396827.114217
    8303.0000  116021.700000  400233.106084
    8313.0000  115759.700000  398596.086952
    8313.5000  118596.700000  408273.119732
    8314.0000  119489.700000  411266.110256
    8314.5000  119858.700000  412448.087341
    8315.0000  119844.700000  412312.079844
    8315.5000  119965.700000  412467.109723
    8316.0000  120739.700000  415020.114897
    8316.5000  120252.700000  413092.096462
    8317.0000  120386.700000  413462.103301
    8317.5000  120415.700000  413394.119756
    8318.0000  120257.700000  412535.119445
    8318.5000  119908.700000  411212.091813
    8319.0000  120277.700000  412191.083152
    8319.5000  120394.700000  412385.096063
    8320.0000  119019.700000  407275.119200
    8320.5000  120496.700000  411884.086642
    8321.0000  120303.700000  410791.086105
    8321.5000  120312.700000  410409.108093
    8322.0000  120214.700000  409580.109107
    8322.5000  120195.700000  408917.100711
    8323.0000  120133.700000  408149.116490
    8323.5000  119903.700000  406732.093025
    8324.0000  120239.700000  407165.098427
    8324.5000  120179.700000  405990.119317
    8325.0000  119739.700000  403496.099124
    8325.5000  120070.700000  403512.084299
    8326.0000  120013.700000  401838.112759
    8326.5000  120149.700000  400565.086054
    8327.0000  120092.700000  398373.116416
    8327.5000  119847.700000  395109.116099
    8328.0000  119726.700000  391705.093959
    8328.5000  119365.700000  386188.112952
    8329.0000  119555.700000  380924.111001
    8329.5000  119065.700000  370346.088066
    8330.0000  118367.700000  352422.091632
    8330.5000  117754.700000  328119.098341
    8331.0000  116765.700000  294731.099310
    8331.5000  114541.700000  258279.098882
    8332.0000  110814.700000  224157.100376
    8332.5000  108683.700000  199395.099078
    8333.0000  108022.700000  180964.100212
    8333.5000  116074.700000  178944.100501
    8334.0000  132852.700000  194617.099459
    8334.5000  141498.700000  199909.099306
    8335.0000  136358.700000  187167.100543
    8335.5000  129575.700000  173521.100089
    8336.0000  125295.700000  163580.099190
    8336.5000  122797.700000  154888.099254
    8337.0000  121249.700000  146520.099293
    8337.5000  120392.700000  138438.099376
    8338.0000  120279.700000  132315.099972
    8338.5000  120474.700000  126914.099965
    8339.0000  120032.700000  121753.100001
    8339.5000  120050.700000  117141.100054
    8340.0000  119718.700000  112352.100024
    8340.5000  119790.700000  106680.099636
    8341.0000  120659.700000  101672.099751
    8341.5000  120095.700000  94356.100220
    8342.0000  120142.700000  87713.100164
    8342.5000  120746.700000  80616.100124
    8343.0000  120373.700000  73496.099771
    8343.5000  120423.700000  66564.100278
    8344.0000  120093.700000  60867.100156
    8344.5000  119850.700000  54427.099995
    8345.0000  120286.700000  50039.100005
    8345.5000  120097.700000  45459.099890
    8346.0000  120283.700000  42139.098670
    8346.5000  120517.700000  39544.101000
    8347.0000  120146.700000  37714.098729
    8347.5000  120112.700000  36598.101545
    8348.0000  120377.700000  36276.099186
    8348.5000  120445.700000  36185.099894
    8349.0000  120188.700000  36239.098596
    8349.5000  120516.700000  36812.101364
    8350.0000  120142.700000  37160.099924
    8350.5000  120000.700000  37819.100381
    8351.0000  120542.700000  38628.098305
    8351.5000  120424.700000  39172.100103
    8352.0000  120214.700000  39348.100855
    8352.5000  120413.700000  39368.098822
    8353.0000  120397.700000  39020.101238
    8353.5000  120356.700000  38190.100532
    8354.0000  120281.700000  37083.098201
    8354.5000  120141.700000  35627.099831
    8355.0000  119357.700000  34307.101269
    8355.5000  120531.700000  33507.101079
    8356.0000  120437.700000  32811.101116
    8356.5000  120758.700000  32562.100139
    8357.0000  120506.700000  32456.101495
    8357.5000  120592.700000  32817.101010
    8358.0000  120563.700000  33228.101345
    8358.9840  120364.700000  34479.098523
    8359.9880  120086.700000  35248.098407
    8361.0120  119633.700000  35978.098359
    8362.0530  120081.700000  37240.100252
    8363.1140  120011.700000  38716.100148
    8364.1930  120001.700000  40121.101159
    8365.2930  120199.700000  41086.098417
    8366.4100  120126.700000  41553.099655
    8367.5480  119962.700000  41758.100696
    8368.7030  120298.700000  41998.101572
    8369.8780  120057.700000  41566.101220
    8371.0720  120698.700000  40995.100417
    8372.2850  120098.700000  39340.101960
    8373.5180  119930.700000  37615.100393
    8374.7690  119966.700000  35732.098564
    8376.0380  120387.700000  34071.098316
    8377.3270  119705.700000  31909.099838
    8378.6360  119796.700000  30332.099445
    8379.9630  120293.700000  29388.100647
    8381.3090  119599.700000  28966.098623
    8382.6740  119657.700000  29403.098697
    8384.0590  119452.700000  30671.101042
    8385.4610  119856.700000  32480.098974
    8386.8840  120273.700000  34689.098695
    8388.3250  120240.700000  36819.101283
    8389.7850  119984.700000  38507.099799
    8391.2650  120101.700000  40246.099159
    8392.7630  120166.700000  41423.102038
    8394.2800  120039.700000  41988.099017
    8395.8160  120562.700000  42303.099160
    8397.3720  119848.700000  41878.099861
    8398.9460  120011.700000  42082.098565
    8400.5400  120079.700000  42534.099227
    8402.1520  119750.700000  42805.101174
    8403.7830  119507.700000  42534.099884
    8405.4340  119697.700000  42073.100676
    8407.1040  119752.700000  41318.100925
    8408.7920  118744.700000  40308.098752
    8410.5000  120543.700000  40426.101084
    8412.2270  120053.700000  39630.100481
    8413.9720  119872.700000  38574.099212
    8415.7360  119705.700000  37384.098136
    8417.5210  119583.700000  36308.099554
    8419.3220  120093.700000  35517.100028
    8421.1450  119783.700000  34437.101540
    8422.9850  119973.700000  33289.101199
    8424.8450  119997.700000  31962.098404
    8426.7240  119718.700000  30632.101395
    8428.6210  119556.700000  29741.100246
    8430.5380  119268.700000  29255.100393
    8432.4740  119445.700000  29679.099419
    8434.4290  119726.700000  30628.098686
    8436.4020  119479.700000  31890.098905
    8438.3960  120004.700000  33668.100241
    8440.4070  119406.700000  35251.099254
    8442.4380  114175.700000  35420.101218
    8444.4880  122019.700000  39328.101220
    8446.5570  121080.700000  40126.098798
    8448.6460  120763.700000  41517.098053
    8450.7520  120080.700000  43036.100791
    8452.8780  119907.700000  45156.100190
    8455.0230  119322.700000  46965.100231
    8457.1880  119525.700000  48197.099891
    8459.3700  120017.700000  48493.100103
    8461.5720  120219.700000  47869.099994
    8463.7940  120136.700000  46556.100189
    8466.0340  119594.700000  44564.100178
    8468.2930  119722.700000  42878.101255
    8470.5710  119544.700000  41392.100772
    8472.8680  120338.700000  40824.098927
    8475.1850  120191.700000  40712.100919
    8477.5200  119849.700000  41036.099616
    8479.8740  119999.700000  41567.098079
    8482.2470  120134.700000  41326.098001
    8484.6400  119931.700000  39690.101102
    8487.0510  120168.700000  37122.100344
    8489.4810  120055.700000  34328.101407
    8491.9310  120193.700000  32555.099013
    8494.3990  119801.700000  31429.098760
    8496.8870  120127.700000  31260.100615
    8499.3930  119807.700000  31059.100506
    8501.9190  119960.700000  31496.098756
    8504.4630  119740.700000  32551.100301
    8507.0260  119880.700000  34500.098586
    8509.6090  119726.700000  37020.101368
    8512.2110  119765.700000  40445.101424
    8514.8310  119196.700000  44253.100185
    8517.4710  119903.700000  48706.100082
    8520.1290  119790.700000  52164.100233
    8522.8070  120152.700000  54108.099808
    8525.5040  119544.700000  53500.099837
    8528.2200  119907.700000  51688.099959
    8530.9540  119783.700000  48930.099867
    8533.7080  119978.700000  46348.099921
    8536.4800  119605.700000  44144.099844
    8539.2720  119863.700000  42778.098910
    8542.0830  119474.700000  42005.099748
    8544.9130  119866.700000  42276.099047
    8547.7620  119783.700000  42526.100478
    8550.6300  119581.700000  42925.099285
    8553.5170  120398.700000  43904.101127
    8556.4220  119678.700000  44367.099915
    8559.3480  119617.700000  45304.099898
    8562.2910  119546.700000  45758.100219
    8565.2540  119751.700000  45282.100069
    8568.2360  119447.700000  43385.098025
    8571.2370  119436.700000  41458.101876
    8574.2570  120036.700000  40128.099692
    8577.2960  120133.700000  39267.098865
    8580.3540  120250.700000  38836.100145
    8583.4320  119482.700000  38628.100005
    8586.5270  119310.700000  39323.099311
    8589.6430  119486.700000  40825.099174
    8592.7760  119341.700000  42896.099755
    8595.9300  119207.700000  45257.099817
    8599.1030  119259.700000  47762.100010
    8602.2930  118959.700000  49511.100170
    8605.5040  120023.700000  51137.100108
    8608.7320  119693.700000  51440.099777
    8611.9810  119499.700000  51327.100159
    8615.2480  120074.700000  51535.100010
    8618.5350  119919.700000  51444.100044
    8621.8400  119758.700000  51550.100241
    8625.1640  119477.700000  51429.100152
    8628.5080  119150.700000  51304.099870
    8631.8700  119443.700000  51124.100018
    8635.2520  119283.700000  50564.100056
    8638.6520  119488.700000  50011.099772
    8642.0710  120042.700000  49794.099985
    8645.5100  119860.700000  49270.099949
    8648.9680  119284.700000  48807.099936
    8652.4440  119639.700000  48760.100037
    8655.9390  117877.700000  47804.099830
    8659.4540  120251.700000  48407.099948
    8662.9880  119619.700000  47652.100152
    8666.5410  119467.700000  47145.100090
    8670.1120  119116.700000  46954.099815
    8673.7030  119724.700000  47671.099820
    8677.3130  118926.700000  48150.100089
    8680.9410  120566.700000  49954.100148
    8684.5890  120482.700000  51270.099893
    8688.2560  120008.700000  52241.099934
    8691.9410  119974.700000  52962.100202
    8695.6460  119792.700000  53155.100208
    8699.3700  119766.700000  53130.100060
    8703.1130  119984.700000  53253.099776
    8706.8750  119225.700000  53512.099939
    8710.6550  118885.700000  54481.100261
    8714.4560  118928.700000  55670.099743
    8718.2740  119252.700000  56482.099843
    8722.1120  119720.700000  56840.099852
    8725.9700  120133.700000  57189.099911
    8729.8460  119326.700000  56808.099909
    8733.7400  118901.700000  56608.099820
    8737.6540  118430.700000  56373.099719
    8741.5880  121550.700000  57678.099863
    8745.5400  121430.700000  57451.099913
    8749.5110  120025.700000  56552.099964
    8753.5010  119919.700000  56376.100129
    8757.5100  119952.700000  56120.100072
    8761.5380  120309.700000  56201.100102
    8765.5850  119550.700000  55713.100077
    8769.6510  119010.700000  55463.100015
    8773.7360  119438.700000  55589.100010
    8777.8410  119359.700000  55780.099894
    8781.9640  120186.700000  56668.100277
    8786.1060  119707.700000  57146.100088
    8790.2680  119294.700000  57880.100164
    8794.4480  114105.700000  56299.100145
    8798.6470  122492.700000  61150.099934
    8802.8660  120614.700000  60517.099860
    8807.1040  118991.700000  59886.099881
    8811.3590  120597.700000  60850.099999
    8815.6350  119836.700000  60577.099928
    8819.9300  119577.700000  60645.099914
    8824.2430  119691.700000  61170.100129
    8828.5750  119889.700000  61943.100105
    8832.9270  118905.700000  62005.100141
    8837.2980  119765.700000  62985.100232
    8841.6880  120040.700000  63547.099918
    8846.0960  119717.700000  63817.100114
    8850.5230  119764.700000  64186.099881
    8854.9700  119241.700000  64239.099749
    8859.4360  119480.700000  64704.100204
    8863.9200  116599.700000  63214.100220
    8868.4240  121014.700000  65531.099784
    8872.9460  120318.700000  65060.099840
    8877.4880  120172.700000  64964.099689
    8882.0490  119475.700000  64309.099876
    8886.6290  119893.700000  64290.100210
    8891.2280  119437.700000  63936.099963
    8895.8460  119392.700000  64023.100277
    8900.4820  119648.700000  64523.100003
    8905.1390  119135.700000  64897.100063
    8909.8130  119707.700000  66041.100165
    8914.5070  119434.700000  66638.100164
    8919.2200  118862.700000  66909.100246
    8923.9520  119184.700000  67501.099774
    8928.7030  119284.700000  68034.100183
    8933.4730  119543.700000  68507.099683
    8938.2620  118984.700000  68449.100004
    8943.0700  119197.700000  68901.099730
    8947.8960  119606.700000  69457.100293
    8952.7430  119691.700000  69921.099766
    8957.6080  119810.700000  70353.099947
    8962.4920  119933.700000  70956.100294
    8967.3960  119975.700000  71288.099943
    8972.3170  119694.700000  71598.099780
    8977.2590  119495.700000  71886.099675
    8982.2190  119417.700000  72137.099720
    8987.1980  119401.700000  72395.100085
    8992.1960  119820.700000  72982.100229
    8997.2140  119553.700000  73067.099691
    9002.2500  119304.700000  73038.100146
    9007.3060  119357.700000  73301.100090
    9012.3800  119210.700000  73350.099838
    9017.4730  119553.700000  73752.100253
    9022.5850  119470.700000  73885.099942
    9027.7170  119710.700000  74349.100059
    9032.8670  119380.700000  74640.100004
    9038.0370  120346.700000  75459.099714
    9043.2250  119906.700000  75506.100202
    9048.4330  119501.700000  75686.100241
    9053.6590  119091.700000  75947.099947
    9058.9040  119404.700000  76573.100270
    9064.1690  119438.700000  77034.099852
    9069.4530  119671.700000  77719.099674
    9074.7560  119655.700000  78010.099741
    9080.0770  119344.700000  78222.099865
    9085.4180  119250.700000  78577.100109
    9090.7770  119541.700000  79375.099795
    9096.1560  119500.700000  79595.099676
    9101.5540  119205.700000  79774.100152
    9106.9710  119252.700000  80415.100123
    9112.4060  119654.700000  81008.099607
    9117.8610  119462.700000  81285.100068
    9123.3350  119540.700000  81781.100294
    9128.8270  119403.700000  82213.100164
    9134.3390  119753.700000  82750.100066
    9139.8700  119683.700000  83048.100125
    9145.4200  119765.700000  83330.099644
    9150.9880  119556.700000  83461.100066
    9156.5770  119977.700000  84024.099977
    9162.1840  119867.700000  84301.100086
    9167.8100  119797.700000  84692.099991
    9173.4540  119359.700000  84733.099720
    9179.1180  119708.700000  85393.100030
    9184.8020  119990.700000  86059.100021
    9190.5040  119720.700000  86300.100268
    9196.2250  119530.700000  86446.100330
    9201.9650  119741.700000  86939.099938
    9207.7240  119912.700000  87542.099783
    9213.5020  119807.700000  87849.099786
    9219.2990  120122.700000  88638.100233
    9225.1150  119458.700000  88605.099726
    9230.9500  119480.700000  89151.099917
    9236.8050  119082.700000  89219.099777
    9242.6780  119103.700000  89745.100218
    9248.5700  120113.700000  90988.099586
    9254.4810  119967.700000  91347.100328
    9260.4120  119360.700000  91296.100062
    9266.3610  119774.700000  92087.099978
    9272.3290  119712.700000  92546.099701
    9278.3160  119654.700000  92873.099962
    9284.3230  119278.700000  92999.099627
    9290.3490  119009.700000  93198.099737
    9296.3930  119983.700000  94461.100064
    9302.4560  119127.700000  94071.099779
    9308.5390  119263.700000  94624.099752
    9314.6410  118958.700000  94855.100000
    9320.7610  119269.700000  95448.100098
    9326.9000  118504.700000  95294.100310
    9333.0590  119626.700000  96590.099928
    9339.2360  120004.700000  97378.099933
    9345.4340  118736.700000  96803.099814
    9351.6480  120137.700000  98374.099693
    9357.8830  119916.700000  98698.099908
    9364.1370  119711.700000  98960.100352
    9370.4100  119512.700000  99257.099835
    9376.7010  119729.700000  99922.099968
    9383.0120  119508.700000  100234.100196
    9389.3420  118745.700000  100115.099763
    9395.6900  120393.700000  101990.099610
    9402.0590  120118.700000  102287.099514
    9408.4450  120242.700000  102810.100315
    9414.8510  119691.700000  102861.099558
    9421.2750  120030.700000  103672.099967
    9427.7200  119560.700000  103765.100157
    9434.1830  119674.700000  104407.099759
    9440.6640  119541.700000  104825.099733
    9447.1660  119858.700000  105617.099895
    9453.6860  119960.700000  106222.100431
    9460.2250  119923.700000  106675.100077
    9466.7820  119420.700000  106679.099993
    9473.3590  119402.700000  107228.100280
    9479.9550  119554.700000  107883.100403
    9486.5700  119205.700000  108056.099954
    9493.2050  119556.700000  108865.099974
    9499.8570  119455.700000  109218.099984
    9506.5300  119752.700000  110068.099985
    9513.2210  119618.700000  110469.099996
    9519.9320  120274.700000  111614.100027
    9526.6600  120256.700000  112146.100021
    9533.4080  120494.700000  112902.100005
    9540.1760  120050.700000  113020.099950
    9546.9620  119194.700000  112623.099990
    9553.7680  119541.700000  113552.100005
    9560.5920  119604.700000  114220.099962
    9567.4350  119522.700000  114688.099960

