# XDI/1.0
# Column.1: energy eV
# Column.2: i0
# Column.3: itrans
# Beamline.name: APS 13ID
# Beamline.notes: vert slits = 0.3mm
# Detector.I0: N2 10cm
# Detector.I1: N2 10cm
# Element.edge: K
# Element.symbol: Ni
# Mono.d_spacing: 3.13550
# Mono.name: Si(111)
# Mono.notes: focussed, detuned 50%
# Sample.formula: Ni
# Sample.name: Ni foil  Room Temperature
# Sample.prep: metal foil
# Sample.reference: none
# Sample.temperature: Room Temperature
# Scan.start_time: 2001-06-26 21:46:07
# ///
#    Note: mono d_spacing is nominal!
#     data from ni_foil.001
#     418 E XMU I0
#-------------
#   energy   i0   itrans
    8133.0000  151941.700000  498119.094810
    8143.0000  140820.700000  460223.089900
    8153.0000  126260.700000  414394.084936
    8163.0000  120386.700000  396433.084608
    8173.0000  117711.700000  387568.115234
    8183.0000  116592.700000  387095.086636
    8193.0000  116417.700000  388066.099866
    8203.0000  116165.700000  388524.107294
    8213.0000  115657.700000  387150.097495
    8223.0000  115978.700000  391089.116540
    8233.0000  115894.700000  392096.083303
    8243.0000  116357.700000  394598.095507
    8253.0000  116689.700000  396633.101147
    8263.0000  116521.700000  398349.086158
    8273.0000  116288.700000  398899.095847
    8283.0000  116373.700000  399918.095444
    8293.0000  116615.700000  400723.119286
    8303.0000  116083.700000  400681.113449
    8313.0000  116211.700000  399842.103456
    8313.5000  118080.700000  406697.102723
    8314.0000  119027.700000  409867.091115
    8314.5000  119705.700000  412100.120388
    8315.0000  120604.700000  415212.092249
    8315.5000  119880.700000  412554.113579
    8316.0000  120302.700000  413722.089337
    8316.5000  120189.700000  413101.087905
    8317.0000  120275.700000  413173.089292
    8317.5000  120277.700000  412940.095774
    8318.0000  120269.700000  412728.099295
    8318.5000  120157.700000  412064.111091
    8319.0000  120457.700000  412761.091219
    8319.5000  120732.700000  413543.087532
    8320.0000  120265.700000  411606.115530
    8320.5000  119999.700000  410300.099839
    8321.0000  120327.700000  411113.097962
    8321.5000  119974.700000  409388.092362
    8322.0000  119937.700000  408813.082795
    8322.5000  120028.700000  408570.090949
    8323.0000  118335.700000  402139.080673
    8323.5000  120378.700000  408342.101412
    8324.0000  119999.700000  406246.103730
    8324.5000  119954.700000  405301.109663
    8325.0000  120532.700000  406311.084998
    8325.5000  119865.700000  402838.102064
    8326.0000  119870.700000  401410.085502
    8326.5000  120486.700000  401835.087115
    8327.0000  119980.700000  398126.102882
    8327.5000  119721.700000  394760.117394
    8328.0000  119671.700000  391484.083807
    8328.5000  119519.700000  386773.098130
    8329.0000  118924.700000  378966.086564
    8329.5000  118582.700000  368861.084156
    8330.0000  118552.700000  353361.102543
    8330.5000  118138.700000  328580.104635
    8331.0000  116606.700000  294780.099713
    8331.5000  114054.700000  255981.101087
    8332.0000  111553.700000  226596.100410
    8332.5000  108408.700000  199030.100900
    8333.0000  107993.700000  180808.100768
    8333.5000  118130.700000  181940.099380
    8334.0000  134420.700000  196921.100628
    8334.5000  140548.700000  198612.100336
    8335.0000  135548.700000  186096.099700
    8335.5000  129002.700000  172841.099838
    8336.0000  124517.700000  162682.100771
    8336.5000  122336.700000  154340.100076
    8337.0000  121364.700000  146811.099360
    8337.5000  119995.700000  137904.100381
    8338.0000  119817.700000  131714.100065
    8338.5000  120054.700000  126253.099993
    8339.0000  119793.700000  121292.099952
    8339.5000  119931.700000  116838.100029
    8340.0000  119938.700000  112514.099978
    8340.5000  120030.700000  106874.099704
    8341.0000  120314.700000  101258.099721
    8341.5000  120247.700000  94102.099902
    8342.0000  120247.700000  87585.099985
    8342.5000  120033.700000  79680.099872
    8343.0000  120434.700000  73395.100105
    8343.5000  120002.700000  66190.099841
    8344.0000  120046.700000  60664.100238
    8344.5000  119936.700000  54699.099874
    8345.0000  119936.700000  49904.099995
    8345.5000  120185.700000  45355.099898
    8346.0000  120424.700000  42098.097992
    8346.5000  120071.700000  39383.098979
    8347.0000  120285.700000  37792.098501
    8347.5000  120515.700000  36721.100484
    8348.0000  120196.700000  36199.100392
    8348.5000  119929.700000  36022.099956
    8349.0000  119875.700000  36193.099264
    8349.5000  119879.700000  36590.101022
    8350.0000  120232.700000  37239.101755
    8350.5000  120257.700000  37963.100185
    8351.0000  119907.700000  38492.098257
    8351.5000  120158.700000  39050.101248
    8352.0000  120285.700000  39416.099375
    8352.5000  120180.700000  39313.101841
    8353.0000  120197.700000  38907.101319
    8353.5000  120231.700000  38145.100204
    8354.0000  119950.700000  36933.098415
    8354.5000  120087.700000  35569.100917
    8355.0000  120002.700000  34473.101130
    8355.5000  119826.700000  33363.101117
    8356.0000  120179.700000  32764.100618
    8356.5000  119925.700000  32313.098824
    8357.0000  119809.700000  32259.099248
    8357.5000  120174.700000  32673.100262
    8358.0000  119816.700000  33037.100085
    8358.9840  120397.700000  34414.098816
    8359.9880  120483.700000  35399.099221
    8361.0120  120656.700000  36383.101526
    8362.0530  120460.700000  37403.098877
    8363.1140  120373.700000  38897.098940
    8364.1930  120684.700000  40324.098161
    8365.2930  120464.700000  41115.100548
    8366.4100  120653.700000  41728.099835
    8367.5480  120229.700000  41867.098498
    8368.7030  120273.700000  41980.099265
    8369.8780  120025.700000  41570.101150
    8371.0720  120198.700000  40706.101969
    8372.2850  119985.700000  39256.100897
    8373.5180  120177.700000  37653.099721
    8374.7690  120018.700000  35737.099968
    8376.0380  120067.700000  33884.099070
    8377.3270  119954.700000  32041.100571
    8378.6360  120264.700000  30496.101228
    8379.9630  119424.700000  29179.101391
    8381.3090  120286.700000  29142.099880
    8382.6740  119532.700000  29414.100673
    8384.0590  120040.700000  30755.100547
    8385.4610  120029.700000  32662.100910
    8386.8840  119732.700000  34578.100848
    8388.3250  120276.700000  36816.098979
    8389.7850  119902.700000  38537.098724
    8391.2650  120013.700000  40245.101836
    8392.7630  120022.700000  41412.099292
    8394.2800  120083.700000  42118.100952
    8395.8160  119987.700000  42080.099692
    8397.3720  119743.700000  41863.098101
    8398.9460  120076.700000  42167.100385
    8400.5400  119986.700000  42605.101657
    8402.1520  119973.700000  42827.098814
    8403.7830  119329.700000  42486.099436
    8405.4340  119718.700000  42056.099283
    8407.1040  119741.700000  41307.101024
    8408.7920  118993.700000  40370.101558
    8410.5000  120393.700000  40387.099147
    8412.2270  120461.700000  39831.101828
    8413.9720  119598.700000  38489.099521
    8415.7360  119449.700000  37289.100131
    8417.5210  119450.700000  36273.100516
    8419.3220  119783.700000  35418.100971
    8421.1450  119756.700000  34363.098982
    8422.9850  119864.700000  33212.101306
    8424.8450  119343.700000  31754.100464
    8426.7240  119840.700000  30682.101173
    8428.6210  119483.700000  29688.099058
    8430.5380  119750.700000  29393.100848
    8432.4740  120240.700000  29936.098717
    8434.4290  119804.700000  30665.100517
    8436.4020  119775.700000  31998.100032
    8438.3960  119655.700000  33558.099570
    8440.4070  119952.700000  35414.098317
    8442.4380  113681.700000  35292.099826
    8444.4880  122479.700000  39600.098355
    8446.5570  121265.700000  40212.098416
    8448.6460  120737.700000  41508.101456
    8450.7520  120135.700000  43109.101099
    8452.8780  119924.700000  45247.099825
    8455.0230  119870.700000  47174.099938
    8457.1880  119627.700000  48298.099886
    8459.3700  119735.700000  48439.100237
    8461.5720  119388.700000  47583.100021
    8463.7940  119832.700000  46474.099777
    8466.0340  119776.700000  44659.100089
    8468.2930  119480.700000  42846.101128
    8470.5710  119777.700000  41520.099064
    8472.8680  120254.700000  40839.101537
    8475.1850  119856.700000  40643.099294
    8477.5200  119836.700000  41060.101463
    8479.8740  120104.700000  41704.100712
    8482.2470  119932.700000  41390.101255
    8484.6400  119745.700000  39664.101231
    8487.0510  120224.700000  37160.099511
    8489.4810  119720.700000  34272.100612
    8491.9310  120192.700000  32630.100420
    8494.3990  119440.700000  31445.101439
    8496.8870  119778.700000  31182.098794
    8499.3930  119098.700000  30874.100506
    8501.9190  119357.700000  31354.100840
    8504.4630  119487.700000  32529.098825
    8507.0260  119766.700000  34489.098334
    8509.6090  119894.700000  37113.098164
    8512.2110  119635.700000  40387.098583
    8514.8310  119697.700000  44491.099934
    8517.4710  119628.700000  48909.099807
    8520.1290  119694.700000  52180.099899
    8522.8070  119708.700000  53896.100137
    8525.5040  120032.700000  53742.099796
    8528.2200  119856.700000  51638.100021
    8530.9540  119451.700000  48752.100104
    8533.7080  119504.700000  46208.100173
    8536.4800  119784.700000  44293.099821
    8539.2720  119767.700000  42807.098143
    8542.0830  119582.700000  42071.101601
    8544.9130  119559.700000  42207.098940
    8547.7620  119222.700000  42373.101941
    8550.6300  119099.700000  42761.101995
    8553.5170  119203.700000  43426.097897
    8556.4220  119785.700000  44533.100002
    8559.3480  119278.700000  45217.099900
    8562.2910  119520.700000  45803.100170
    8565.2540  119232.700000  45069.099924
    8568.2360  119528.700000  43467.099122
    8571.2370  119294.700000  41437.099482
    8574.2570  119477.700000  39998.099604
    8577.2960  119765.700000  39286.098720
    8580.3540  119827.700000  38733.101782
    8583.4320  119552.700000  38696.098397
    8586.5270  119618.700000  39454.100509
    8589.6430  119398.700000  40879.099310
    8592.7760  119902.700000  43201.100979
    8595.9300  119648.700000  45509.100151
    8599.1030  120084.700000  48273.099876
    8602.2930  118180.700000  49186.099794
    8605.5040  119996.700000  51186.100081
    8608.7320  119808.700000  51587.100147
    8611.9810  119268.700000  51301.099818
    8615.2480  119524.700000  51303.099763
    8618.5350  118894.700000  51001.099812
    8621.8400  118970.700000  51163.099755
    8625.1640  119343.700000  51421.100072
    8628.5080  118567.700000  51070.099832
    8631.8700  119209.700000  51126.099854
    8635.2520  119421.700000  50662.099998
    8638.6520  119330.700000  49963.099874
    8642.0710  118834.700000  49256.100197
    8645.5100  119281.700000  49079.100013
    8648.9680  119030.700000  48696.099917
    8652.4440  119124.700000  48555.099905
    8655.9390  120016.700000  48779.099870
    8659.4540  119637.700000  48215.099963
    8662.9880  119716.700000  47762.100015
    8666.5410  119457.700000  47233.099802
    8670.1120  119420.700000  47186.099767
    8673.7030  119026.700000  47477.099913
    8677.3130  117985.700000  47891.099870
    8680.9410  120669.700000  50091.100168
    8684.5890  119948.700000  51019.099947
    8688.2560  119869.700000  52190.099884
    8691.9410  119336.700000  52685.099816
    8695.6460  119334.700000  53041.099759
    8699.3700  119615.700000  53091.099888
    8703.1130  118997.700000  52851.099972
    8706.8750  119327.700000  53615.099737
    8710.6550  119118.700000  54631.099852
    8714.4560  119911.700000  56263.099760
    8718.2740  119841.700000  56861.100196
    8722.1120  119708.700000  56906.100035
    8725.9700  119581.700000  56969.100239
    8729.8460  119327.700000  56933.099749
    8733.7400  118722.700000  56572.100053
    8737.6540  118073.700000  56230.099722
    8741.5880  121606.700000  57812.100021
    8745.5400  121464.700000  57548.099755
    8749.5110  120111.700000  56639.100211
    8753.5010  119316.700000  56083.100178
    8757.5100  119208.700000  55819.100213
    8761.5380  119506.700000  55841.099963
    8765.5850  119168.700000  55567.099820
    8769.6510  118901.700000  55428.099775
    8773.7360  119603.700000  55778.099903
    8777.8410  119216.700000  55806.100172
    8781.9640  119697.700000  56468.100042
    8786.1060  119339.700000  57083.099851
    8790.2680  118898.700000  57753.100142
    8794.4480  114469.700000  56502.100201
    8798.6470  122275.700000  61091.099908
    8802.8660  120247.700000  60367.099845
    8807.1040  118550.700000  59701.100089
    8811.3590  119603.700000  60309.100183
    8815.6350  119575.700000  60506.099832
    8819.9300  119128.700000  60485.099854
    8824.2430  119408.700000  61104.099731
    8828.5750  119470.700000  61794.100147
    8832.9270  118977.700000  62144.099923
    8837.2980  119526.700000  62913.099891
    8841.6880  119651.700000  63342.099835
    8846.0960  119970.700000  63978.099936
    8850.5230  119326.700000  64032.099966
    8854.9700  119298.700000  64347.099689
    8859.4360  119197.700000  64544.099874
    8863.9200  116106.700000  63015.099729
    8868.4240  120346.700000  65199.099913
    8872.9460  120060.700000  64956.100073
    8877.4880  119893.700000  64741.099836
    8882.0490  119166.700000  64182.099844
    8886.6290  120067.700000  64481.100178
    8891.2280  118789.700000  63638.099697
    8895.8460  118933.700000  63804.100216
    8900.4820  118794.700000  64125.100012
    8905.1390  118517.700000  64657.099690
    8909.8130  118864.700000  65684.100289
    8914.5070  119513.700000  66719.100027
    8919.2200  119004.700000  67034.100200
    8923.9520  119227.700000  67652.100265
    8928.7030  119679.700000  68442.099670
    8933.4730  119235.700000  68431.099780
    8938.2620  119205.700000  68757.099886
    8943.0700  118815.700000  68773.100204
    8947.8960  118771.700000  69108.099844
    8952.7430  118527.700000  69243.099821
    8957.6080  118736.700000  69768.100097
    8962.4920  119299.700000  70510.100174
    8967.3960  119455.700000  71097.100213
    8972.3170  119079.700000  71361.100277
    8977.2590  118635.700000  71531.100208
    8982.2190  119631.700000  72454.099902
    8987.1980  119019.700000  72269.100268
    8992.1960  119794.700000  73023.100354
    8997.2140  119270.700000  72845.100053
    9002.2500  119611.700000  73358.100358
    9007.3060  119568.700000  73506.099677
    9012.3800  119378.700000  73502.099695
    9017.4730  119203.700000  73656.100057
    9022.5850  119244.700000  73802.099841
    9027.7170  119471.700000  74237.099854
    9032.8670  117821.700000  73528.099904
    9038.0370  119584.700000  75029.099897
    9043.2250  119468.700000  75317.100129
    9048.4330  119417.700000  75729.100185
    9053.6590  119451.700000  76213.100125
    9058.9040  119296.700000  76574.099839
    9064.1690  118854.700000  76698.100187
    9069.4530  119360.700000  77445.100218
    9074.7560  118998.700000  77656.100353
    9080.0770  119419.700000  78293.100193
    9085.4180  119407.700000  78808.100357
    9090.7770  118662.700000  78734.100165
    9096.1560  119084.700000  79376.099940
    9101.5540  119090.700000  79788.099772
    9106.9710  119162.700000  80275.100041
    9112.4060  119114.700000  80696.099796
    9117.8610  119319.700000  81253.100087
    9123.3350  119320.700000  81699.100026
    9128.8270  119163.700000  81977.099843
    9134.3390  119765.700000  82847.100325
    9139.8700  119690.700000  83018.099917
    9145.4200  120047.700000  83536.100004
    9150.9880  118986.700000  83084.100361
    9156.5770  119743.700000  83955.100267
    9162.1840  119351.700000  83935.099608
    9167.8100  119477.700000  84414.100322
    9173.4540  119035.700000  84580.100318
    9179.1180  119550.700000  85365.099745
    9184.8020  119203.700000  85546.100213
    9190.5040  119855.700000  86386.099651
    9196.2250  119281.700000  86306.100283
    9201.9650  119381.700000  86758.099710
    9207.7240  119120.700000  87000.099713
    9213.5020  118761.700000  87268.100432
    9219.2990  119492.700000  88222.100275
    9225.1150  119457.700000  88658.100435
    9230.9500  119415.700000  89125.100209
    9236.8050  119324.700000  89555.100039
    9242.6780  118725.700000  89522.099841
    9248.5700  119553.700000  90619.099566
    9254.4810  119283.700000  90920.100052
    9260.4120  119505.700000  91531.100342
    9266.3610  119278.700000  91805.100003
    9272.3290  119569.700000  92436.099995
    9278.3160  119257.700000  92675.099985
    9284.3230  119232.700000  93068.100244
    9290.3490  118978.700000  93296.099921
    9296.3930  119142.700000  93832.099944
    9302.4560  119067.700000  94170.099762
    9308.5390  119256.700000  94693.099698
    9314.6410  119218.700000  95094.100366
    9320.7610  119623.700000  95850.099965
    9326.9000  119437.700000  96116.100072
    9333.0590  119476.700000  96560.100084
    9339.2360  119281.700000  96848.100081
    9345.4340  118333.700000  96580.100342
    9351.6480  119692.700000  98117.100157
    9357.8830  119704.700000  98578.099923
    9364.1370  119733.700000  99082.100072
    9370.4100  120099.700000  99856.100153
    9376.7010  119681.700000  99941.099621
    9383.0120  119473.700000  100251.100478
    9389.3420  118495.700000  99954.100238
    9395.6900  119459.700000  101241.099505
    9402.0590  119765.700000  102000.100050
    9408.4450  119376.700000  102168.100364
    9414.8510  119144.700000  102497.099520
    9421.2750  119697.700000  103475.100375
    9427.7200  119304.700000  103645.100158
    9434.1830  119317.700000  104199.100158
    9440.6640  119313.700000  104730.100465
    9447.1660  119694.700000  105582.100517
    9453.6860  118924.700000  105388.100338
    9460.2250  118939.700000  105894.100411
    9466.7820  118931.700000  106345.100261
    9473.3590  119193.700000  107103.099886
    9479.9550  118797.700000  107219.100221
    9486.5700  119162.700000  108063.100046
    9493.2050  119247.700000  108670.100009
    9499.8570  119341.700000  109280.100011
    9506.5300  119517.700000  109972.100033
    9513.2210  119099.700000  110025.099987
    9519.9320  119188.700000  110679.100016
    9526.6600  119802.700000  111775.100024
    9533.4080  118855.700000  111315.099981
    9540.1760  119873.700000  112898.099950
    9546.9620  119623.700000  113228.100027
    9553.7680  119795.700000  113898.099985
    9560.5920  119914.700000  114642.100014
    9567.4350  119512.700000  114748.099978

