# XDI/1.0
# Column.1: energy eV
# Column.2: i0
# Column.3: itrans
# Column.4: irefer
# Beamline.name: SSRL 4-1
# Detector.I0: N2 15cm
# Detector.I1: N2 30cm
# Detector.I2: N2 15cm
# Element.edge: K
# Element.symbol: Ni
# Mono.d_spacing: 3.13550
# Mono.name: Si(111)
# Mono.notes: unfocused, detuned 25%,counter clockwise
# Sample.formula: Ni_OH_2
# Sample.name: Ni(OH)2   nickel hydroxide
# Sample.prep: powder, mixed 1:100 with B(OH)3 by wt
# Sample.reference: none
# Sample.temperature: room temperature
# Scan.start_time: 1997-01-17 15:07:08
# ///
#    Note: mono d_spacing is nominal!
#     exafs to K17
#     435  E XMU XMUR I0
#-------------
#   energy   i0   itrans  irefer
    8110.0000  217539.590000  175296.593082  515936.325128
    8120.0030  217561.590000  176410.591248  518906.225012
    8130.0020  217528.590000  177476.585966  522347.821221
    8139.9990  216629.590000  177844.582435  525297.115345
    8149.9980  216701.590000  179000.597862  529189.264550
    8160.0000  216143.590000  179659.583107  532657.088172
    8169.9980  215738.590000  180425.588966  536659.300415
    8179.9990  215861.590000  181632.590879  540914.872995
    8190.0020  215333.590000  182281.593256  545192.916394
    8200.0010  215181.590000  183241.595529  549654.267651
    8209.9970  214685.590000  184006.592491  554119.066827
    8220.0010  214227.590000  184685.587935  559063.383807
    8230.0010  214016.590000  185613.589207  563645.233734
    8240.0020  213641.590000  186389.598354  568781.354690
    8250.0010  213108.590000  187020.595659  573413.873327
    8260.0000  212488.590000  187566.583206  578124.297312
    8270.0000  212046.590000  188254.583566  582807.075443
    8280.0020  210994.590000  188419.581655  586850.025112
    8290.0000  210914.590000  189403.595612  592170.834353
    8299.9990  209583.590000  189209.592831  597626.129782
    8310.0000  210424.590000  191060.590723  599649.073530
    8310.4970  210840.590000  191480.590868  601309.303547
    8311.0000  210876.590000  191563.590898  602526.001741
    8311.4980  210988.590000  191698.590269  603343.867983
    8312.0010  210617.590000  191418.589759  603374.822305
    8312.4990  210598.590000  191463.590866  604011.153921
    8313.0030  210298.590000  191227.589734  604142.011078
    8313.5000  210321.590000  191290.590922  604822.901450
    8313.9980  210220.590000  191238.589460  605146.034338
    8314.5020  210216.590000  191274.590107  605618.372995
    8315.0000  209925.590000  191038.590968  605516.888599
    8315.4980  210149.590000  191301.590478  606346.855088
    8316.0020  210340.590000  191522.589801  606850.073136
    8316.5000  210578.590000  191776.590352  607213.283576
    8316.9980  210597.590000  191834.591121  607249.956434
    8317.5030  210254.590000  191570.590552  607068.940121
    8318.0010  210556.590000  191886.590513  607790.058062
    8318.4990  210331.590000  191698.590120  607537.131652
    8318.9980  210259.590000  191662.589586  607390.237683
    8319.5030  210001.590000  191476.591225  606868.156353
    8320.0010  209742.590000  191301.589806  606419.012529
    8320.4990  209544.590000  191149.590303  605694.247588
    8320.9980  208816.590000  190499.590865  604359.395642
    8321.5030  207821.590000  189644.589953  602316.311226
    8322.0020  206563.590000  188547.590946  599893.084528
    8322.5000  205859.590000  187931.590154  598403.343744
    8323.0000  204462.590000  186715.590888  595872.998601
    8323.4990  203259.590000  185690.591233  593825.081607
    8323.9980  202436.590000  184972.589957  592733.359821
    8324.5030  201392.590000  184059.590604  590863.819593
    8325.0020  201556.590000  184227.590033  590703.911225
    8325.5010  201591.590000  184279.590713  589836.936011
    8326.0000  202094.590000  184735.591040  589496.371726
    8326.5000  203430.590000  185955.590717  590511.367224
    8326.9990  204496.590000  186902.589717  590714.942663
    8327.4990  206162.590000  188429.590012  591171.055373
    8327.9980  207538.590000  189706.590547  590290.989751
    8328.4980  208990.590000  191059.589639  588109.036556
    8328.9980  210160.590000  192172.589665  584401.865923
    8329.4970  210655.590000  192612.589830  578952.169286
    8329.9970  211269.590000  193178.589581  571240.376493
    8330.5030  211146.590000  193052.590533  561448.269936
    8331.0030  211199.590000  193035.590867  549064.862160
    8331.4970  211175.590000  192924.590065  534708.312268
    8331.9970  211328.590000  192988.590528  519368.095014
    8332.4970  210874.590000  192510.590266  500933.103682
    8332.9980  211063.590000  192632.591277  480623.107408
    8333.4970  210601.590000  192167.590700  443453.105805
    8333.9980  210519.590000  192089.590988  403874.094829
    8334.4980  210456.590000  192039.589979  366884.083202
    8334.9990  210124.590000  191748.590693  336661.101391
    8335.5000  210356.590000  191928.590484  315180.086388
    8335.9990  210159.590000  191611.590032  294875.093403
    8336.5000  209849.590000  191124.589417  280376.099958
    8337.0010  209813.590000  190741.589956  267104.075904
    8337.5020  209670.590000  190167.590777  255754.101052
    8338.0030  209511.590000  189439.584811  244460.088905
    8338.4970  209393.590000  188533.589887  232240.085228
    8338.9980  209578.590000  187800.588474  221449.085394
    8339.4990  209549.590000  186567.595877  208856.104117
    8340.0000  209348.590000  185140.585353  197698.085707
    8340.5020  209148.590000  183345.592644  185507.092588
    8341.0030  209357.590000  181707.590037  173911.090917
    8341.4980  209770.590000  180193.595776  163337.095364
    8341.9990  209483.590000  177743.590140  150997.096317
    8342.5010  209650.590000  175898.599153  140588.092872
    8343.0030  209632.590000  173465.585805  128160.095310
    8343.4980  209798.590000  171298.590194  116971.097604
    8343.9990  209858.590000  168791.583974  105460.093737
    8344.5010  210060.590000  166141.596032  94249.103365
    8345.0020  210253.590000  163516.593358  84769.098645
    8345.4980  210292.590000  160006.597172  74530.105670
    8346.0000  210213.590000  156546.596842  66169.101486
    8346.5020  210106.590000  152746.589944  58288.101020
    8346.9980  210373.590000  149649.598321  52194.104619
    8347.5000  210381.590000  146702.595423  47181.099451
    8348.0010  210200.590000  143748.589189  42760.118836
    8348.4980  210050.590000  141750.590228  39978.112085
    8349.0000  210019.590000  140305.587555  37921.104804
    8349.5020  210031.590000  139641.587121  36852.116332
    8349.9990  209893.590000  139335.596704  36311.096672
    8350.5010  209832.590000  139530.584689  36259.115883
    8350.9980  209736.590000  139942.596013  36500.111306
    8351.5000  209847.590000  140852.593213  37046.093416
    8352.0020  209719.590000  141751.589042  37589.101427
    8352.4990  209768.590000  143188.589736  38272.115291
    8353.0020  209748.590000  144760.597041  38865.086294
    8353.4990  209621.590000  146336.586134  39272.100384
    8354.0010  209582.590000  148066.587189  39470.086690
    8354.4980  209507.590000  149513.586429  39403.091111
    8355.0010  209574.590000  151218.591249  39092.100533
    8355.4980  209488.590000  152527.586516  38572.109939
    8356.0020  209672.590000  153949.591179  37960.085223
    8356.4980  209578.590000  155013.591517  37282.117954
    8357.0010  209561.590000  155956.587277  36743.108411
    8357.4980  209680.590000  157039.595286  36331.094515
    8358.0020  209309.590000  157528.587196  36096.104387
    8358.4990  209790.590000  158627.588255  36242.093339
    8359.0030  209388.590000  158914.593155  36426.113014
    8359.5000  209585.590000  159521.594230  36874.096036
    8359.9980  209591.590000  159853.589007  37434.110252
    8360.5010  209573.590000  160000.596380  37979.120288
    8360.9990  209376.590000  159881.592850  38546.083387
    8361.5030  209420.590000  159824.593327  39083.091154
    8362.0000  209497.590000  159736.588346  39670.115090
    8362.4980  209483.590000  159516.586424  40260.100116
    8363.0020  209510.590000  159345.593420  40836.095626
    8363.5000  209444.590000  159114.587301  41487.103400
    8363.9980  209680.590000  159187.598709  42138.102245
    8364.5020  209338.590000  158915.591303  42801.116511
    8365.0000  209521.590000  159110.589030  43533.096546
    8365.4980  209431.590000  159202.590722  44207.106056
    8366.0030  209495.590000  159504.588370  44900.085053
    8366.5010  209601.590000  159860.592458  45450.105338
    8367.0000  209631.590000  160275.587708  45995.094833
    8367.4980  209566.590000  160601.596271  46396.115631
    8368.0030  209547.590000  161000.597067  46761.119301
    8368.5010  209402.590000  161308.594600  47020.104569
    8368.9990  209272.590000  161635.590573  47214.089789
    8369.4980  209682.590000  162439.595245  47503.111354
    8369.9970  209529.590000  162740.591589  47556.119197
    8370.8810  209373.590000  163446.589661  47473.101585
    8371.7820  209286.590000  164132.570287  47041.089134
    8372.7080  209291.580000  164788.560283  46258.082216
    8373.6460  209339.560000  165319.526018  45149.089908
    8374.6030  209349.530000  165684.478446  43671.086520
    8375.5840  209425.500000  165887.436923  41998.103711
    8376.5830  209451.470000  165846.384569  40230.079647
    8377.6010  209434.440000  165603.330726  38375.082465
    8378.6370  209285.390000  165063.248205  36570.054517
    8379.6900  209488.340000  164637.169764  34974.075306
    8380.7630  209426.300000  163932.078655  33715.045357
    8381.8540  209479.230000  163280.959295  32954.024518
    8382.9690  209622.170000  162681.860861  32786.030319
    8384.0960  209511.090000  161842.748174  33165.002340
    8385.2480  209541.030000  161096.629382  34119.987881
    8386.4180  209484.940000  160267.493129  35527.009967
    8387.6070  209197.860000  159339.349693  37243.975593
    8388.8130  209635.770000  159063.198213  39223.952615
    8390.0400  209660.670000  158545.032022  41132.956713
    8391.2840  209651.580000  158074.858683  42862.945437
    8392.5470  209719.470000  157769.685131  44385.919045
    8393.8340  209765.360000  157532.497876  45574.883881
    8395.1340  209978.250000  157529.297041  46368.875797
    8396.4590  209914.120000  157488.083438  46717.872241
    8397.7960  209850.000000  157621.894108  46830.846066
    8399.1570  210171.870000  158253.665672  47095.818814
    8400.5370  210218.730000  158778.438214  47478.774573
    8401.9370  210092.590000  159219.179167  47956.758404
    8403.3480  210158.450000  159799.957922  48367.725850
    8404.7840  210531.300000  160614.684995  48565.734736
    8406.2380  210197.140000  160852.428624  48206.716232
    8407.7190  210286.980000  161354.154935  47631.660145
    8409.2110  210528.810000  161912.879282  46981.617509
    8410.7220  210524.640000  162232.582638  46405.593471
    8412.2520  210733.470000  162715.285637  45893.567225
    8413.8070  210781.280000  163059.963627  45150.529536
    8415.3750  211008.090000  163580.655412  44193.520087
    8416.9610  211303.910000  164129.332354  43141.470581
    8418.5720  211198.700000  164373.996260  42018.428527
    8420.1960  211100.500000  164645.655697  40949.419050
    8421.8450  211466.300000  165301.296437  39960.395364
    8423.5070  211749.080000  165913.934788  38835.360659
    8425.1940  211761.860000  166313.563184  37530.312561
    8426.8940  211829.640000  166683.193647  36242.264547
    8428.6190  211971.410000  167071.807844  35126.249750
    8430.3560  212270.190000  167499.412591  34446.205434
    8432.1190  212159.940000  167528.003806  34258.151082
    8433.8960  212469.700000  167846.587063  34799.130122
    8435.6970  212615.450000  168032.167611  35922.090300
    8437.5110  212850.200000  168290.748922  37510.021299
    8439.3510  212976.940000  168488.297600  39354.971088
    8441.2090  212933.670000  168641.862371  41457.935416
    8443.0810  213206.410000  169081.417202  43663.886192
    8444.9720  213471.120000  169594.934266  45710.857612
    8446.8890  213629.860000  170008.475438  47373.798013
    8448.8170  213881.560000  170516.983863  49091.745465
    8450.7720  214016.280000  170957.482784  51356.724750
    8452.7400  214178.980000  171354.981610  54046.636926
    8454.7280  214336.690000  171618.483921  56850.606946
    8456.7400  214517.370000  171776.963948  59100.590394
    8458.7670  214701.060000  171773.430169  60292.537629
    8460.8130  215000.750000  171752.900090  60316.446822
    8462.8770  215197.440000  171633.352886  59271.378429
    8464.9620  215456.110000  171658.806387  57558.327382
    8467.0660  215692.780000  171806.248629  55477.269617
    8469.1890  215859.440000  172045.685535  53381.223011
    8471.3320  216202.110000  172463.111054  51692.172340
    8473.4890  216157.750000  172548.518778  50550.127373
    8475.6720  216283.410000  172716.933346  50273.094379
    8477.8670  216884.050000  173300.308858  50820.000053
    8480.0900  216917.690000  173439.697274  51420.965213
    8482.3250  217078.330000  173763.078951  51505.868681
    8484.5800  217734.950000  174592.449408  50445.845643
    8486.8550  217589.580000  174847.808146  47768.762792
    8489.1490  218086.190000  175678.171761  44569.677522
    8491.4650  218254.810000  176319.507620  41801.646697
    8493.7990  218408.410000  177008.853386  40029.582788
    8496.1460  218856.020000  177992.171802  39275.486484
    8498.5210  219134.610000  178871.504933  39108.455567
    8500.9090  219234.200000  179586.801489  39367.384338
    8503.3170  219180.800000  180119.111031  40192.296986
    8505.7460  219512.370000  180843.386053  41942.238012
    8508.1930  219883.950000  181485.689919  44678.160695
    8510.6620  220372.530000  182079.960225  48422.081184
    8513.1450  220563.090000  182319.214471  53143.036298
    8515.6460  220832.660000  182547.483023  58743.958878
    8518.1700  221014.220000  182701.731996  64697.848232
    8520.7120  221702.770000  183369.970907  70121.798661
    8523.2740  221774.310000  183616.206161  73307.721407
    8525.8590  222144.860000  184169.419403  73792.639554
    8528.4560  222369.390000  184607.641849  71794.560779
    8531.0740  222684.920000  185128.847857  68330.488477
    8533.7120  222844.450000  185496.032641  64577.399358
    8536.3710  223530.970000  186285.226079  61554.316041
    8539.0440  223749.480000  186671.396499  59221.214642
    8541.7370  223884.000000  186962.574522  57869.151921
    8544.4510  224067.500000  187311.732146  57517.097173
    8547.1870  224413.000000  187861.897333  57992.001985
    8549.9350  225268.500000  188933.031972  58993.933942
    8552.7120  225108.980000  189290.172231  59906.807146
    8555.5020  225501.470000  190138.295372  61175.738291
    8558.3070  226008.950000  191116.425562  62821.652574
    8561.1380  225967.420000  191559.531467  64261.559988
    8563.9850  226506.890000  192310.617425  64873.476909
    8566.8520  226996.360000  192897.716502  63816.391800
    8569.7400  227207.810000  193217.802167  61278.317018
    8572.6440  227471.280000  193601.880605  58576.224480
    8575.5660  228023.720000  194278.939458  56670.112686
    8578.5120  228104.170000  194632.002816  55426.045052
    8581.4720  228636.610000  195415.055693  54987.934436
    8584.4520  228960.050000  196051.098951  55303.839372
    8587.4540  229302.470000  196673.120092  56581.725481
    8590.4710  229416.890000  197094.149110  58939.678868
    8593.5080  229939.310000  197791.155640  62297.525415
    8596.5670  230350.720000  198440.164630  66265.448133
    8599.6420  230705.140000  199035.150529  70368.339919
    8602.7360  231419.530000  199961.132569  73990.256122
    8605.8540  231754.940000  200584.122088  76562.156967
    8608.9850  231784.330000  200966.098015  77897.053439
    8612.1390  232098.720000  201649.067791  78397.951517
    8615.3130  232349.090000  202327.007810  78575.845184
    8618.5030  232704.470000  203182.944860  78944.737266
    8621.7150  231772.840000  202969.892263  78985.639232
    8624.9410  233387.220000  204995.835146  79933.541851
    8628.1890  232677.580000  204879.728851  80016.424387
    8631.4540  234933.940000  207344.667348  80789.327244
    8634.7390  235110.280000  207869.541929  80369.213056
    8638.0470  235657.640000  208677.432345  79746.102884
    8641.3700  236323.970000  209597.330855  79117.992797
    8644.7140  236371.310000  210003.209948  78486.883062
    8648.0810  236869.640000  210814.067353  78241.777781
    8651.4570  237299.970000  211541.931606  78187.668009
    8654.8610  237759.300000  212307.780655  78156.546158
    8658.2810  238501.610000  213299.602271  78074.442364
    8661.7170  238523.920000  213607.453000  77603.303627
    8665.1740  238965.220000  214303.260781  77081.177389
    8668.6540  239364.530000  214933.079186  76699.080503
    8672.1500  239879.810000  215667.896057  77039.995281
    8675.6610  240287.110000  216375.689486  78191.832630
    8679.1950  241158.390000  217526.468534  80237.736773
    8682.7510  240934.670000  217724.242171  82403.607632
    8686.3230  241138.950000  218355.027224  85005.486661
    8689.9180  241798.220000  219410.781330  87609.363955
    8693.5230  242399.480000  220516.543433  89533.245909
    8697.1560  242957.750000  221602.281392  90557.123449
    8700.8060  243471.000000  222632.016652  91037.996099
    8704.4710  243823.250000  223458.750959  91648.878510
    8708.1590  244347.500000  224445.470019  93178.749165
    8711.8640  244913.730000  225390.169276  95676.622162
    8715.5850  245186.970000  226096.876014  98401.491588
    8719.3360  245348.200000  226702.574995  100220.365455
    8723.0970  246304.420000  228014.248531  101265.230621
    8726.8800  246377.640000  228562.937670  101741.106062
    8730.6800  247111.860000  229742.594672  102515.973822
    8734.4950  247641.060000  230697.246351  103023.841163
    8738.3420  248093.270000  231611.908824  103349.708351
    8742.1970  248418.470000  232372.547790  103479.579443
    8746.0770  248817.660000  233187.175420  103564.443251
    8749.9730  249548.840000  234321.793731  103760.302723
    8753.8860  250276.030000  235434.421279  103936.174994
    8757.8210  250500.200000  236090.014323  103914.032728
    8761.7740  250899.370000  236920.620968  104054.900826
    8765.7510  251561.550000  238045.204666  104409.763502
    8769.7380  252044.700000  238998.778905  104729.615950
    8773.7540  252529.860000  240013.360166  105173.481250
    8777.7810  252791.020000  240805.925211  105844.339495
    8781.8330  253295.170000  241870.466034  107071.198372
    8785.8950  254040.310000  243140.013637  108950.054892
    8789.9860  254512.440000  244153.565701  111295.908317
    8794.0890  254655.580000  244827.080021  113697.767495
    8798.2160  255236.700000  245901.605901  116037.611997
    8802.3590  255813.830000  246967.110863  117827.474416
    8806.5260  256360.940000  248013.609915  119086.321792
    8810.7050  256807.050000  248956.112201  119962.167796
    8814.9080  257086.160000  249742.598544  120697.025207
    8819.1280  257394.250000  250556.062064  121632.876159
    8823.3720  257490.360000  251151.532601  122795.733609
    8827.6280  253848.440000  248145.000815  122658.571733
    8831.9070  258306.530000  253026.437790  126720.424817
    8836.2050  258953.610000  254200.890955  128828.268264
    8840.5200  255715.690000  251470.315156  128551.120662
    8844.8530  261651.750000  257892.734604  132795.950203
    8849.2100  261901.810000  258700.153495  134309.801437
    8853.5860  262224.870000  259567.558066  135814.639074
    8857.9720  263024.940000  260929.954980  137370.478631
    8862.3840  263416.000000  261917.343871  138467.324358
    8866.8180  263980.030000  263083.718113  139322.167258
    8871.2680  264042.060000  263825.091015  139764.008893
    8875.7380  264594.090000  264955.464886  140197.838165
    8880.2230  265322.120000  266304.807865  140658.680066
    8884.7310  265346.160000  266934.160130  140580.536309
    8889.2580  266346.190000  268566.501944  141067.353790
    8893.8040  266940.190000  269773.815034  141657.204437
    8898.3680  267751.190000  271227.158703  142943.034930
    8902.9500  267934.190000  272032.471764  144615.853501
    8907.5510  268308.190000  273023.751299  147104.702110
    8912.1710  268803.190000  274164.065431  149894.528904
    8916.8080  269285.190000  275269.344774  152467.362062
    8921.4720  270025.160000  276608.597031  154818.196058
    8926.1470  270161.160000  277335.878618  156543.030870
    8930.8480  271024.120000  278851.120358  158586.854414
    8935.5670  270899.090000  279331.371889  159879.689205
    8940.3000  271498.030000  280548.622830  161554.501022
    8945.0570  272038.000000  281724.843525  163191.321237
    8949.8260  273197.970000  283566.095536  165338.160998
    8954.6220  273760.910000  284790.284123  167209.992767
    8959.4300  274210.840000  285901.495320  169016.801904
    8964.2640  274410.780000  286763.688276  170769.618995
    8969.1170  275463.720000  288518.876057  173258.450303
    8973.9820  275714.660000  289476.066097  175232.282146
    8978.8740  276021.560000  290442.246300  177050.083222
    8983.7780  276545.470000  291664.405738  178927.902595
    8988.7080  277057.370000  292890.557883  180625.732940
    8993.6510  277347.280000  293821.717209  182031.541927
    8998.6140  278133.190000  295312.846103  183781.359904
    9003.6030  278736.090000  296650.963366  185460.188207
    9008.6040  279133.000000  297786.093212  186896.992108
    9013.6260  279579.870000  298975.183632  188251.808221
    9018.6670  279817.750000  299953.312753  189486.624400
    9023.7280  280582.620000  301463.400387  191263.434702
    9028.8020  281090.500000  302717.467962  193065.251326
    9033.9020  281384.370000  303714.558930  194901.053031
    9039.0230  281890.220000  304963.627185  196967.869089
    9044.1570  282690.060000  306527.683643  199259.674911
    9049.3110  283358.940000  307962.722007  201680.476031
    9054.4850  284326.780000  309687.780567  204390.305980
    9059.6790  283903.620000  309948.806762  206188.096992
    9064.8940  283826.440000  310626.847521  208209.908142
    9070.1200  284152.280000  311710.842632  210430.718702
    9075.3760  284999.090000  313385.840080  212991.518844
    9080.6450  285092.910000  314286.847870  215127.311016
    9085.9340  284858.720000  314753.844738  217083.134412
    9091.2440  286615.530000  317463.801543  220486.904025
    9096.5660  287540.340000  319255.768429  223243.714190
    9101.9100  286510.160000  318883.744164  224534.528695
    9107.2820  288012.940000  321304.737141  227872.351352
    9112.6600  288485.720000  322612.653147  230454.117753
    9118.0660  290403.500000  325525.609255  234159.928074
    9123.4850  290203.280000  326080.519414  236250.703214
    9128.9280  289814.060000  326435.423450  238061.500304
    9134.3890  291175.840000  328740.355391  241151.326168
    9139.8710  291623.590000  330055.260121  243384.110101
    9145.3680  292539.340000  331879.135639  245853.874503
    9150.8870  292567.090000  332713.017098  247619.676831
    9156.4270  293097.840000  334094.897941  249874.471608
    9161.9790  294275.590000  336254.767490  252733.256202
    9167.5550  294146.340000  336858.613767  254730.060606
    9173.1510  294669.060000  338268.478783  257451.845824
    9178.7630  295126.780000  339588.308552  260239.621238
    9184.3950  295691.500000  341059.169933  263063.429813
    9190.0480  296430.220000  342751.962797  265980.219980
    9195.7170  296501.940000  343623.768083  268214.990270
    9201.4060  296812.660000  344812.594595  270731.773585
    9207.1110  297848.340000  346853.406414  274013.570021
    9212.8380  297668.030000  347474.184232  276327.338567
    9218.5870  298070.720000  348747.956558  279343.127483
    9224.3490  298864.410000  350550.751098  282751.916283
    9230.1340  299177.090000  351797.481124  285801.659593
    9235.9420  299265.780000  352751.264309  288607.483073
    9241.7650  298829.440000  353061.010349  290861.257710
    9247.6080  300524.120000  355931.756402  295216.036954
    9253.4680  301397.780000  357862.459249  298793.775248
    9259.3510  301339.440000  358645.177780  301545.566376
    9265.2470  300697.090000  358720.886988  303630.321137
    9271.1660  302576.720000  361879.601929  308313.143189
    9277.1010  303085.370000  363356.307061  311565.913137
    9283.0580  303652.000000  364921.006223  314870.646625
    9289.0300  304036.620000  366288.639342  317987.430312
    9295.0260  304777.250000  368089.340543  321462.206116
    9301.0440  305171.870000  369442.985267  324476.958057
    9307.0770  305476.500000  370726.632942  327456.772035
    9313.1270  305912.090000  372127.289975  330615.534501
    9319.1990  306180.690000  373374.903423  333669.278363
    9325.2870  306602.310000  374775.545207  336964.067708
    9331.3970  307091.910000  376271.171365  340378.823418
    9337.5240  307861.470000  378125.748795  344173.592368
    9343.6740  308282.060000  379574.330945  347669.332165
    9349.8410  308897.660000  381226.933817  351412.091487
    9356.0210  309172.220000  382526.513772  354886.857680
    9362.2270  309666.780000  384049.102740  358596.634540
    9368.4490  309911.340000  385297.651581  362068.400840
    9374.6930  310303.910000  386733.208697  365725.145273
    9380.9540  310302.470000  387649.790978  368923.915403
    9387.2380  310915.000000  389363.308562  372941.649939
    9393.5310  311219.560000  390684.857441  376652.451822
    9399.8560  312085.090000  392704.324987  381092.171184
    9406.1890  312223.620000  393849.856521  384710.918746
    9412.5490  312517.160000  395175.385258  388534.698430
    9418.9230  313407.660000  397260.871219  393206.433968
    9425.3200  313690.190000  398565.337263  397183.181169
    9431.7350  314230.690000  400246.816350  400916.941206
    9438.1670  314833.190000  402002.273070  405950.679844
    9444.6220  315560.720000  403899.756575  410577.444431
    9451.0880  315889.190000  405319.192989  414745.192438

