# XDI/1.0
# Column.1: energy eV
# Column.2: i0
# Column.3: itrans
# Column.4: irefer
# Beamline.name: SSRL 4-1
# Detector.I0: N2 15cm
# Detector.I1: N2 30cm
# Detector.I2: N2 15cm
# Element.edge: K
# Element.symbol: Ni
# Mono.d_spacing: 3.13550
# Mono.name: Si(111)
# Mono.notes: unfocused, detuned 25%,counter clockwise
# Sample.formula: Ni_OH_2
# Sample.name: Ni(OH)2   nickel hydroxide
# Sample.prep: powder, mixed 1:100 with B(OH)3 by wt
# Sample.reference: none
# Sample.temperature: room temperature
# Scan.start_time: 1997-01-17 15:07:08
# ///
#    Note: mono d_spacing is nominal!
#     exafs to K17
#     435  E XMU XMUR I0
#-------------
#   energy   i0   itrans  irefer
    8110.0000  220368.590000  177336.587933  500821.902329
    8120.0030  220426.590000  178481.582082  504889.914430
    8130.0020  219803.590000  179088.585568  509142.824217
    8139.9990  219781.590000  180184.581905  513844.032401
    8149.9980  219250.590000  180872.583036  518440.269426
    8160.0000  219211.590000  181966.595271  523586.959238
    8169.9980  218722.590000  182702.585433  528546.937757
    8179.9990  218422.590000  183574.590491  533710.241400
    8190.0020  218284.590000  184597.590629  539254.305856
    8200.0010  217645.590000  185185.588981  544390.328889
    8209.9970  217238.590000  185966.591619  549790.910175
    8220.0010  217162.590000  187022.594481  555639.351639
    8230.0010  216695.590000  187742.596596  561107.134355
    8240.0020  216266.590000  188478.597557  566578.963799
    8250.0010  215774.590000  189189.583192  572347.084234
    8260.0000  215084.590000  189699.585633  577102.961046
    8270.0000  214792.590000  190576.590728  583058.290369
    8280.0020  213339.590000  190395.581443  586440.325070
    8290.0000  213311.590000  191466.596121  592583.837338
    8299.9990  212037.590000  191318.594083  598494.939870
    8310.0000  213104.590000  193367.589850  601387.200842
    8310.4970  213303.590000  193614.590487  602551.136782
    8311.0000  213345.590000  193699.591051  603611.306902
    8311.4980  213214.590000  193629.589859  604231.862961
    8312.0010  213181.590000  193667.590369  604898.840170
    8312.4990  212841.590000  193402.591013  604945.263328
    8313.0030  212675.590000  193305.589704  605231.060345
    8313.5000  212990.590000  193632.589783  606548.381189
    8313.9980  212445.590000  193160.590590  606179.361603
    8314.5020  212435.590000  193199.589404  606577.071731
    8315.0000  212627.590000  193424.590186  607398.280514
    8315.4980  212804.590000  193639.589815  607946.963322
    8316.0020  212739.590000  193636.590129  608289.035041
    8316.5000  213051.590000  193989.590994  609085.409253
    8316.9980  212798.590000  193796.589547  608683.301157
    8317.5030  212917.590000  193948.591065  609469.026310
    8318.0010  213030.590000  194105.590208  609826.377998
    8318.4990  212439.590000  193632.589640  608783.982103
    8318.9980  212545.590000  193772.590299  608992.076243
    8319.5030  212274.590000  193564.589459  608548.888853
    8320.0010  211962.590000  193328.591305  607964.983170
    8320.4990  211339.590000  192776.589492  606652.992315
    8320.9980  210923.590000  192437.590350  605629.186424
    8321.5030  209870.590000  191527.590253  603597.069997
    8322.0020  208832.590000  190627.590391  601188.023209
    8322.5000  207326.590000  189294.590113  598289.337809
    8323.0000  206322.590000  188434.590149  596236.228338
    8323.4990  205266.590000  187511.591217  594158.823543
    8323.9980  204383.590000  186778.591248  592370.871789
    8324.5030  203415.590000  185933.590136  590561.965621
    8325.0020  203311.590000  185851.591182  589728.026364
    8325.5010  203829.590000  186362.589428  589766.196719
    8326.0000  204551.590000  187032.589581  589804.353403
    8326.5000  205780.590000  188152.590287  591020.842974
    8326.9990  207103.590000  189349.590725  591920.297295
    8327.4990  208676.590000  190780.590559  592324.144967
    8327.9980  209831.590000  191875.590642  591053.298307
    8328.4980  211255.590000  193181.590008  588725.851204
    8328.9980  212100.590000  194015.591283  583950.093753
    8329.4970  212568.590000  194429.590073  577604.912610
    8329.9970  213462.590000  195244.590891  568864.395413
    8330.5030  213245.590000  195004.589894  557505.348051
    8331.0030  213435.590000  195109.590052  543281.934169
    8331.4970  213379.590000  194983.590220  527574.138454
    8331.9970  212998.590000  194569.589552  511201.064783
    8332.4970  212856.590000  194391.590543  492468.073222
    8332.9980  212729.590000  194254.590067  472342.103527
    8333.4970  212786.590000  194266.589526  436634.075536
    8333.9980  212460.590000  193959.590765  397737.103214
    8334.4980  212316.590000  193840.589911  362130.092854
    8334.9990  212280.590000  193816.589573  333784.073472
    8335.5000  211914.590000  193456.589985  312305.084862
    8335.9990  211969.590000  193340.590452  293369.102288
    8336.5000  211911.590000  193041.590284  279633.092347
    8337.0010  211700.590000  192461.590721  266338.086893
    8337.5020  211528.590000  191821.591030  255061.100601
    8338.0030  211323.590000  191008.582312  243698.074771
    8338.4970  211336.590000  190162.596214  231434.101845
    8338.9980  211326.590000  189211.598339  220319.101485
    8339.4990  211216.590000  187839.598632  207593.099198
    8340.0000  211133.590000  186459.593933  196507.093736
    8340.5020  211206.590000  184844.596657  184631.096630
    8341.0030  211351.590000  183108.587293  172839.087232
    8341.4980  211195.590000  181043.597229  161608.100378
    8341.9990  211385.590000  178990.584965  149607.082375
    8342.5010  211317.590000  176891.591534  138863.087781
    8343.0030  211391.590000  174491.597783  126421.098999
    8343.4980  211560.590000  172268.591103  115177.098989
    8343.9990  211386.590000  169505.595348  103582.100228
    8344.5010  211733.590000  166886.598938  92498.102748
    8345.0020  211559.590000  163893.595317  82915.101284
    8345.4980  212067.590000  160727.590038  73180.101356
    8346.0000  212113.590000  157298.587925  64991.099716
    8346.5020  211950.590000  153445.596110  57303.103323
    8346.9980  211979.590000  150191.597615  51313.085440
    8347.5000  211727.590000  147122.591584  46459.092563
    8348.0010  211732.590000  144448.596479  42343.109769
    8348.4980  211780.590000  142711.596477  39813.091323
    8349.0000  211710.590000  141374.585216  37940.115186
    8349.5020  211563.590000  140720.593109  36989.101501
    8349.9990  211665.590000  140690.595853  36607.096813
    8350.5010  211511.590000  140888.584341  36612.085691
    8350.9980  211417.590000  141381.594270  36917.089620
    8351.5000  211037.590000  142023.589816  37401.102002
    8352.0020  211413.590000  143348.590125  38062.112207
    8352.4990  211299.590000  144721.598176  38714.100367
    8353.0020  210940.590000  146126.594241  39233.121641
    8353.4990  211285.590000  148057.590847  39685.120757
    8354.0010  211148.590000  149789.594139  39810.098197
    8354.4980  210885.590000  151096.583615  39648.109170
    8355.0010  211087.590000  152867.596720  39298.099771
    8355.4980  211052.590000  154184.593568  38760.106866
    8356.0020  211174.590000  155548.585863  38113.102936
    8356.4980  210792.590000  156353.593018  37382.103141
    8357.0010  211230.590000  157604.586689  36948.102037
    8357.4980  211023.590000  158412.585189  36531.099108
    8358.0020  211344.590000  159442.591468  36476.088245
    8358.4990  210968.590000  159866.590786  36521.117679
    8359.0030  211158.590000  160561.598872  36858.109510
    8359.5000  210729.590000  160659.584991  37224.112902
    8359.9980  211424.590000  161492.594391  37936.104594
    8360.5010  211029.590000  161325.596386  38420.096176
    8360.9990  210752.590000  161133.592218  38977.119179
    8361.5030  211030.590000  161261.585196  39563.097373
    8362.0000  210910.590000  160994.596063  40106.114324
    8362.4980  210966.590000  160831.587914  40719.120761
    8363.0020  210944.590000  160625.584147  41303.080780
    8363.5000  210895.590000  160424.588229  41965.085581
    8363.9980  210869.590000  160317.590029  42583.113822
    8364.5020  210846.590000  160288.594710  43309.105753
    8365.0000  211080.590000  160544.586850  44062.086833
    8365.4980  210881.590000  160580.582965  44705.113503
    8366.0030  210795.590000  160796.597412  45357.121397
    8366.5010  210786.590000  161082.587587  45876.096126
    8367.0000  210959.590000  161576.594333  46428.119461
    8367.4980  210859.590000  161898.591645  46815.116913
    8368.0030  210973.590000  162422.596615  47206.120687
    8368.5010  210730.590000  162675.593377  47441.102438
    8368.9990  210757.590000  163112.591943  47656.103420
    8369.4980  210779.590000  163633.584994  47840.075621
    8369.9970  210881.590000  164131.591145  47939.101714
    8370.8810  210797.590000  164900.586121  47824.104181
    8371.7820  210605.590000  165497.575069  47330.104062
    8372.7080  210492.580000  166040.561201  46461.086050
    8373.6460  210677.560000  166646.535091  45346.092651
    8374.6030  210662.530000  166979.486444  43816.084203
    8375.5840  210681.500000  167135.442124  42113.085606
    8376.5830  210668.470000  167051.385980  40328.058427
    8377.6010  210585.440000  166728.336699  38446.080820
    8378.6370  210723.390000  166371.248095  36691.081901
    8379.6900  210550.340000  165639.173582  35042.050018
    8380.7630  210799.300000  165169.083217  33878.063007
    8381.8540  210696.230000  164391.968482  33141.047768
    8382.9690  210752.170000  163726.850477  33022.016094
    8384.0960  210563.090000  162828.748071  33459.007177
    8385.2480  210690.030000  162161.621460  34487.002062
    8386.4180  210524.940000  161269.491504  35929.002051
    8387.6070  210716.860000  160713.348915  37761.963394
    8388.8130  210728.770000  160095.186880  39667.949979
    8390.0400  210821.670000  159631.033283  41586.937279
    8391.2840  210730.580000  159127.862472  43304.910955
    8392.5470  210777.470000  158801.696562  44796.913072
    8393.8340  210668.360000  158457.503939  45925.909890
    8395.1340  210840.250000  158444.304076  46678.895112
    8396.4590  210973.120000  158557.092261  47041.854749
    8397.7960  211082.000000  158837.883838  47199.820215
    8399.1570  211072.870000  159228.667479  47398.819783
    8400.5370  211344.730000  159933.434095  47846.773768
    8401.9370  211150.590000  160322.189618  48309.753476
    8403.3480  211034.450000  160785.952088  48675.751501
    8404.7840  211326.300000  161544.683830  48827.700473
    8406.2380  211290.140000  162018.424463  48507.676318
    8407.7190  211243.980000  162399.145951  47870.678102
    8409.2110  211518.810000  163002.873698  47245.614306
    8410.7220  211961.640000  163663.569431  46778.603813
    8412.2520  211612.470000  163709.289554  46137.599742
    8413.8070  211924.280000  164288.962042  45442.547740
    8415.3750  212011.090000  164677.659539  44428.536841
    8416.9610  212010.910000  164993.327817  43309.501088
    8418.5720  211853.700000  165184.997386  42166.456787
    8420.1960  212233.500000  165847.647975  41197.417966
    8421.8450  212278.300000  166261.300413  40126.367009
    8423.5070  212460.080000  166799.936944  38962.362338
    8425.1940  212617.860000  167295.560237  37652.301075
    8426.8940  212696.640000  167678.193099  36368.267599
    8428.6190  212960.410000  168177.821324  35283.233516
    8430.3560  212965.190000  168357.404114  34593.199798
    8432.1190  213226.940000  168686.007756  34515.173693
    8433.8960  213292.700000  168826.591239  35077.121218
    8435.6970  213584.450000  169113.164762  36270.078036
    8437.5110  213672.200000  169250.753699  37873.034381
    8439.3510  213899.940000  169542.297012  39761.990189
    8441.2090  213793.670000  169639.855202  41861.924517
    8443.0810  214145.410000  170159.404333  44082.887573
    8444.9720  214335.120000  170589.941107  46103.859721
    8446.8890  214326.860000  170905.476205  47734.797198
    8448.8170  214738.560000  171545.989018  49523.751769
    8450.7720  214882.280000  171984.480535  51846.697707
    8452.7400  215223.980000  172522.981435  54610.679197
    8454.7280  215107.690000  172551.490304  57343.625493
    8456.7400  215338.370000  172727.965810  59561.590102
    8458.7670  215590.060000  172769.430532  60690.485172
    8460.8130  215724.750000  172610.910540  60582.434390
    8462.8770  215786.440000  172369.359771  59418.380521
    8464.9620  216066.110000  172414.821424  57652.368250
    8467.0660  216549.780000  172786.244865  55635.320020
    8469.1890  216421.440000  172769.686883  53460.251644
    8471.3320  216841.110000  173263.104310  51824.202681
    8473.4890  217128.750000  173609.512385  50823.131507
    8475.6720  217398.410000  173909.919468  50640.085233
    8477.8670  217575.050000  174146.317057  51121.995683
    8480.0900  217525.690000  174229.702600  51690.941764
    8482.3250  217749.330000  174596.088201  51725.880117
    8484.5800  218149.950000  175228.453365  50517.841472
    8486.8550  218679.580000  176025.813766  47926.742799
    8489.1490  218638.190000  176451.166870  44589.712150
    8491.4650  218908.810000  177186.517761  41874.621463
    8493.7990  219141.410000  177933.845942  40173.550415
    8496.1460  219407.020000  178788.178304  39426.522262
    8498.5210  219613.610000  179582.494912  39264.456074
    8500.9090  219983.200000  180520.795164  39601.380541
    8503.3170  219939.800000  181061.105283  40476.298175
    8505.7460  220371.370000  181879.388830  42299.225181
    8508.1930  220534.950000  182345.690842  45046.139456
    8510.6620  220845.530000  182790.958723  48816.101043
    8513.1450  221222.090000  183173.213868  53644.032304
    8515.6460  221510.660000  183397.479169  59325.949944
    8518.1700  221725.220000  183573.726755  65300.870533
    8520.7120  222228.770000  184084.970419  70618.796382
    8523.2740  222272.310000  184320.198015  73690.718262
    8525.8590  222763.860000  184951.418268  74103.642426
    8528.4560  222924.390000  185347.632368  71934.562793
    8531.0740  223334.920000  185950.838227  68446.480147
    8533.7120  223435.450000  186273.022065  64680.415461
    8536.3710  224100.970000  187036.223981  61673.313015
    8539.0440  224004.480000  187155.411952  59287.254577
    8541.7370  224560.000000  187795.580231  58098.162221
    8544.4510  224899.500000  188275.729711  57834.098186
    8547.1870  225175.000000  188774.895793  58321.993993
    8549.9350  225400.500000  189335.035415  59176.891528
    8552.7120  225741.980000  190097.170601  60227.819628
    8555.5020  226193.470000  191038.293028  61534.740100
    8558.3070  226265.950000  191660.423266  63074.664619
    8561.1380  226669.420000  192453.536639  64630.585370
    8563.9850  226671.890000  192755.616992  65018.455044
    8566.8520  226935.360000  193156.727553  63807.383929
    8569.7400  227562.810000  193805.792525  61341.314500
    8572.6440  227606.280000  194001.869214  58593.208510
    8575.5660  227885.720000  194481.934156  56672.114116
    8578.5120  228386.170000  195189.000850  55563.045127
    8581.4720  228675.610000  195754.054848  55090.927591
    8584.4520  229124.050000  196477.095062  55472.858214
    8587.4540  229413.470000  197070.123325  56793.769134
    8590.4710  229394.890000  197387.130324  59162.620320
    8593.5080  230137.310000  198306.146456  62618.516856
    8596.5670  230784.720000  199129.153732  66724.461708
    8599.6420  230884.140000  199527.151788  70702.386402
    8602.7360  231363.530000  200265.141578  74245.256971
    8605.8540  231413.940000  200653.121785  76687.157398
    8608.9850  231842.330000  201361.102999  78091.055853
    8612.1390  232284.720000  202156.057417  78622.951498
    8615.3130  232360.090000  202695.019113  78734.850174
    8618.5030  232331.470000  203209.954254  78979.743009
    8621.7150  231488.840000  203031.890958  79045.644573
    8624.9410  233394.220000  205350.824439  80115.540997
    8628.1890  232418.580000  205006.742768  80102.436364
    8631.4540  234597.940000  207399.659757  80825.317778
    8634.7390  235279.280000  208371.539542  80565.211244
    8638.0470  235714.640000  209058.438069  79890.106443
    8641.3700  235804.970000  209473.337732  79063.993200
    8644.7140  236189.310000  210172.210463  78550.886032
    8648.0810  236921.640000  211184.055365  78397.767686
    8651.4570  237140.970000  211779.931051  78294.665715
    8654.8610  237507.300000  212442.775396  78210.543032
    8658.2810  238128.610000  213318.617720  78099.441511
    8661.7170  238182.920000  213666.449079  77623.339592
    8665.1740  238899.220000  214591.257195  77194.181835
    8668.6540  239540.530000  215437.087613  76900.081020
    8672.1500  239569.810000  215768.884705  77125.954382
    8675.6610  240043.110000  216550.685285  78330.858567
    8679.1950  240392.390000  217217.476295  80215.739328
    8682.7510  240815.670000  217985.249154  82616.605553
    8686.3230  241333.950000  218909.028593  85319.492805
    8689.9180  241720.220000  219725.781604  87828.365825
    8693.5230  242055.480000  220591.544401  89623.250283
    8697.1560  243043.750000  222063.280441  90790.121741
    8700.8060  243109.000000  222694.015725  91093.003622
    8704.4710  243438.250000  223527.749891  91739.878698
    8708.1590  244002.500000  224519.468128  93303.751975
    8711.8640  244557.730000  225494.167883  95841.625575
    8715.5850  245045.970000  226376.876519  98631.492345
    8719.3360  245211.200000  226971.575145  100413.362398
    8723.0970  245873.420000  228042.248142  101336.231297
    8726.8800  246607.640000  229179.935967  102035.107128
    8730.6800  246905.860000  229940.594407  102658.976818
    8734.4950  247028.060000  230530.246115  102994.838303
    8738.3420  247898.270000  231802.908990  103477.715505
    8742.1970  248028.470000  232406.547494  103547.578006
    8746.0770  248786.660000  233555.176720  103772.442821
    8749.9730  248987.840000  234178.793861  103729.308174
    8753.8860  249577.030000  235158.420079  103842.166339
    8757.8210  250037.200000  236037.012839  103922.032116
    8761.7740  250582.370000  237024.620292  104147.891101
    8765.7510  251114.550000  238001.205677  104431.759560
    8769.7380  251547.700000  238928.777059  104724.616367
    8773.7540  251666.860000  239573.360968  105020.480004
    8777.7810  252322.020000  240776.926555  105887.338959
    8781.8330  253014.170000  242039.465893  107220.192639
    8785.8950  253325.310000  242895.012598  108925.057845
    8789.9860  253643.440000  243776.565662  111233.911101
    8794.0890  254064.580000  244710.080923  113741.765804
    8798.2160  254869.700000  246031.605217  116184.611462
    8802.3590  255042.830000  246718.110493  117788.475085
    8806.5260  255370.940000  247541.611419  118927.325304
    8810.7050  255863.050000  248509.111385  119797.175715
    8814.9080  256794.160000  249905.598393  120836.022448
    8819.1280  256811.250000  250443.062497  121639.870631
    8823.3720  256665.360000  250804.531119  122706.727033
    8827.6280  253264.440000  248027.002245  122697.566704
    8831.9070  257199.530000  252403.436279  126408.426519
    8836.2050  258090.610000  253798.890778  128701.270303
    8840.5200  254525.690000  250736.316214  128240.121266
    8844.8530  260669.750000  257375.734833  132602.949415
    8849.2100  260855.810000  258124.153053  134078.799429
    8853.5860  261458.870000  259263.558126  135732.636571
    8857.9720  262124.940000  260506.954956  137218.488127
    8862.3840  262478.000000  261462.343963  138289.328399
    8866.8180  262844.030000  262468.718007  139076.175115
    8871.2680  263271.060000  263512.091010  139605.020495
    8875.7380  263487.090000  264334.465081  139930.841948
    8880.2230  264102.120000  265555.808084  140307.679029
    8884.7310  264893.160000  266973.159967  140645.526549
    8889.2580  265134.190000  267825.501645  140732.363463
    8893.8040  265264.190000  268581.816040  141092.200759
    8898.3680  266538.190000  270504.156837  142617.035646
    8902.9500  266621.190000  271193.469824  144269.860491
    8907.5510  267049.190000  272263.752193  146824.702273
    8912.1710  267874.190000  273709.066174  149772.539520
    8916.8080  268613.190000  275074.345764  152468.361563
    8921.4720  268757.160000  275831.598999  154481.188393
    8926.1470  269428.160000  277123.880184  156509.032989
    8930.8480  269566.120000  277864.118962  158118.857596
    8935.5670  269711.090000  278639.371112  159574.686902
    8940.3000  270645.030000  280202.624358  161444.495080
    8945.0570  270743.000000  280916.845327  162806.324556
    8949.8260  271950.970000  282796.094184  164982.156016
    8954.6220  272251.910000  283725.286055  166676.993261
    8959.4300  273061.840000  285214.494557  168682.813741
    8964.2640  273167.780000  285972.686687  170380.625048
    8969.1170  273745.720000  287205.875923  172606.458408
    8973.9820  274325.660000  288547.068238  174755.284461
    8978.8740  274849.560000  289746.248113  176708.084936
    8983.7780  275332.470000  290923.407848  178543.903553
    8988.7080  275996.370000  292304.557384  180349.721559
    8993.6510  276068.280000  293021.717205  181617.554351
    8998.6140  276561.190000  294237.845468  183196.351833
    9003.6030  277413.090000  295826.964779  185005.176347
    9008.6040  278044.000000  297190.094996  186596.006081
    9013.6260  278319.870000  298200.182327  187828.800771
    9018.6670  279028.750000  299691.314456  189386.631172
    9023.7280  279128.620000  300464.400432  190695.435949
    9028.8020  279785.500000  301894.469679  192620.246944
    9033.9020  279960.370000  302765.557210  194370.059926
    9039.0230  280806.220000  304367.624799  196665.882887
    9044.1570  281260.060000  305566.683616  198733.678969
    9049.3110  281722.940000  306762.721838  200988.492609
    9054.4850  282005.780000  307785.778669  203257.290455
    9059.6790  283045.620000  309616.806891  206072.103815
    9064.8940  282546.440000  309851.845797  207793.909012
    9070.1200  283119.280000  311189.842796  210169.711206
    9075.3760  283444.090000  312273.838484  212308.517988
    9080.6450  283281.910000  312883.848379  214256.314629
    9085.9340  283314.720000  313657.857030  216415.130691
    9091.2440  284517.530000  315715.808434  219371.923138
    9096.5660  286015.340000  318177.768092  222581.704569
    9101.9100  284873.160000  317689.766189  223787.542004
    9107.2820  286748.940000  320519.705921  227411.319819
    9112.6600  286722.720000  321263.647035  229589.129134
    9118.0660  288331.500000  323857.582788  233064.924311
    9123.4850  288041.280000  324303.531609  235057.720515
    9128.9280  288207.060000  325293.444186  237322.524802
    9134.3890  289354.840000  327349.351893  240226.314242
    9139.8710  289808.590000  328641.230378  242418.087686
    9145.3680  290405.340000  330128.136399  244642.869407
    9150.8870  291182.090000  331763.017163  247001.673105
    9156.4270  291561.840000  333024.888482  249183.463751
    9161.9790  292194.590000  334571.793029  251632.272186
    9167.5550  292720.340000  335951.626964  254144.062703
    9173.1510  292950.060000  336995.457423  256593.841320
    9178.7630  293385.780000  338322.302313  259370.618491
    9184.3950  293840.500000  339658.161031  262095.437609
    9190.0480  294379.220000  341077.969301  264792.208656
    9195.7170  294788.940000  342386.783061  267349.994989
    9201.4060  295126.660000  343615.610108  269897.786856
    9207.1110  295789.340000  345223.388974  272822.557617
    9212.8380  295881.030000  346129.176495  275364.327424
    9218.5870  296542.720000  347708.953387  278630.125994
    9224.3490  296686.410000  348782.745420  281445.893814
    9230.1340  297426.090000  350513.512271  284883.708642
    9235.9420  297737.780000  351737.256419  287907.476467
    9241.7650  297129.440000  351874.004153  290001.260283
    9247.6080  298711.120000  354576.759879  294211.045755
    9253.4680  299300.780000  356195.458508  297559.772549
    9259.3510  299257.440000  356998.188053  300281.571543
    9265.2470  299152.090000  357719.910139  302909.356192
    9271.1660  301071.720000  360924.613188  307619.155205
    9277.1010  301303.370000  362069.300352  310595.906389
    9283.0580  301619.000000  363339.017707  313638.682757
    9289.0300  302086.620000  364741.650982  316790.444665
    9295.0260  302758.250000  366435.359111  320140.234391
    9301.0440  302836.870000  367448.979488  322842.948587
    9307.0770  302930.500000  368437.616253  325566.748865
    9313.1270  303611.090000  370171.263615  329000.500875
    9319.1990  304376.690000  371986.902821  332562.278456
    9325.2870  304619.310000  373199.538760  335655.062541
    9331.3970  305329.910000  374996.151838  339337.807714
    9337.5240  305694.470000  376327.749951  342685.593271
    9343.6740  306411.060000  378115.322028  346456.324761
    9349.8410  306382.660000  379020.935967  349506.092503
    9356.0210  306898.220000  380559.546963  353194.890273
    9362.2270  307267.780000  381950.078288  356762.610836
    9368.4490  307551.340000  383243.643816  360279.393197
    9374.6930  308362.910000  385192.214664  364401.152665
    9380.9540  308300.470000  385997.795914  367455.921286
    9387.2380  308446.000000  387159.319847  370942.660779
    9393.5310  309502.560000  389420.821992  375566.417664
    9399.8560  309632.090000  390527.342570  379109.187104
    9406.1890  309830.620000  391723.863242  382756.926506
    9412.5490  310509.160000  393534.367385  387067.680110
    9418.9230  310703.660000  394744.885275  390871.448293
    9425.3200  311193.190000  396296.357558  395077.201655
    9431.7350  311767.690000  398170.827147  398840.952102
    9438.1670  312036.190000  399346.265819  403432.672347
    9444.6220  312348.720000  400690.759292  407474.447814
    9451.0880  312720.190000  402147.175190  411657.173192

