# XDI/1.0
# Column.1: energy eV
# Column.2: i0
# Column.3: itrans
# Column.4: irefer
# Beamline.name: SSRL 4-1
# Detector.I0: N2 15cm
# Detector.I1: N2 30cm
# Detector.I2: N2 15cm
# Element.edge: K
# Element.symbol: Ni
# Mono.d_spacing: 3.13550
# Mono.name: Si(111)
# Mono.notes: unfocused, detuned 25%,counter clockwise
# Sample.formula: Ni_OH_2
# Sample.name: Ni(OH)2   nickel hydroxide
# Sample.prep: powder, mixed 1:100 with B(OH)3 by wt
# Sample.reference: none
# Sample.temperature: room temperature
# Scan.start_time: 1997-01-17 15:07:08
# ///
#    Note: mono d_spacing is nominal!
#     exafs to K17
#     435  E XMU XMUR I0
#-------------
#   energy   i0   itrans  irefer
    8110.0000  218863.590000  176691.585695  500888.118128
    8120.0030  218394.590000  177409.598066  504425.002926
    8130.0020  218233.590000  178396.589514  508664.214753
    8139.9990  217992.590000  179333.584381  513090.206778
    8149.9980  217793.590000  180277.598970  517668.915889
    8160.0000  217491.590000  181141.588635  522427.899597
    8169.9980  217030.590000  181873.594734  527267.975307
    8179.9990  217053.590000  183028.592092  532679.207875
    8190.0020  216302.590000  183505.585734  537417.955272
    8200.0010  215834.590000  184227.595864  542436.987873
    8209.9970  215486.590000  185045.581317  547790.097728
    8220.0010  215338.590000  186031.595317  553219.321838
    8230.0010  214928.590000  186800.599186  558820.176419
    8240.0020  214315.590000  187412.589676  563779.122668
    8250.0010  214040.590000  188277.581258  569573.804605
    8260.0000  213461.590000  188885.594214  574481.279000
    8270.0000  212899.590000  189489.581877  579722.213234
    8280.0020  211670.590000  189500.591423  583590.854381
    8290.0000  211444.590000  190375.583906  589312.072820
    8299.9990  210636.590000  190659.589935  595890.297961
    8310.0000  211417.590000  192432.591267  597948.073857
    8310.4970  211623.590000  192674.590766  599469.266362
    8311.0000  211359.590000  192504.590646  599811.237142
    8311.4980  211483.590000  192666.590914  600849.319518
    8312.0010  211287.590000  192533.589851  601019.050019
    8312.4990  211074.590000  192416.589421  601602.397670
    8313.0030  210955.590000  192341.590294  602062.889457
    8313.5000  210937.590000  192372.590629  602521.932826
    8313.9980  210896.590000  192352.590848  603054.213238
    8314.5020  210988.590000  192490.591303  603777.212361
    8315.0000  210837.590000  192401.589850  604069.224492
    8315.4980  211012.590000  192635.590101  604546.306406
    8316.0020  210820.590000  192523.591106  604483.090778
    8316.5000  211175.590000  192881.590038  605347.986819
    8316.9980  211263.590000  193013.590887  605804.063075
    8317.5030  211060.590000  192893.589797  605707.192528
    8318.0010  210944.590000  192855.590359  605621.178342
    8318.4990  210580.590000  192541.589590  605140.813303
    8318.9980  210907.590000  192885.590049  605782.018223
    8319.5030  210461.590000  192520.589445  605164.974609
    8320.0010  210152.590000  192280.590854  604429.305351
    8320.4990  209425.590000  191652.590253  602991.021726
    8320.9980  208832.590000  191121.590734  601652.975359
    8321.5030  208128.590000  190511.589471  600141.241393
    8322.0020  206640.590000  189219.590285  596998.854118
    8322.5000  205514.590000  188229.589593  594757.309403
    8323.0000  204480.590000  187332.590619  592847.142854
    8323.4990  203303.590000  186302.589868  590969.364362
    8323.9980  202152.590000  185298.590795  588619.243104
    8324.5030  201792.590000  185028.590748  587796.828085
    8325.0020  201613.590000  184893.590783  586874.192858
    8325.5010  202185.590000  185444.591251  586964.380832
    8326.0000  202944.590000  186120.589841  587214.867398
    8326.5000  204327.590000  187376.589468  588436.158573
    8326.9990  205510.590000  188475.590560  589156.295276
    8327.4990  207356.590000  190144.591037  589554.276715
    8327.9980  208367.590000  191118.590788  587703.241722
    8328.4980  209704.590000  192373.590651  585174.015903
    8328.9980  210477.590000  193056.589669  580003.046810
    8329.4970  211154.590000  193725.591171  573895.129980
    8329.9970  211365.590000  193911.590902  564154.041927
    8330.5030  211385.590000  193911.590573  552974.194843
    8331.0030  211136.590000  193606.591257  538318.945502
    8331.4970  211366.590000  193743.591066  523042.064099
    8331.9970  210912.590000  193259.590226  506488.091592
    8332.4970  211451.590000  193694.590613  487628.108898
    8332.9980  210770.590000  193037.590777  463932.070073
    8333.4970  210724.590000  192967.590555  424971.093033
    8333.9980  210374.590000  192664.590426  386513.077673
    8334.4980  210555.590000  192804.590930  353251.085258
    8334.9990  210112.590000  192418.590907  325884.088014
    8335.5000  210185.590000  192420.590615  306324.087918
    8335.9990  209871.590000  191949.590389  287939.096561
    8336.5000  210089.590000  191897.590859  275335.085543
    8337.0010  209474.590000  190922.591009  261860.092548
    8337.5020  209654.590000  190601.590714  251193.092702
    8338.0030  209296.590000  189618.590641  239614.081867
    8338.4970  209438.590000  188872.591728  227633.088082
    8338.9980  209132.590000  187616.587605  216181.093602
    8339.4990  209185.590000  186320.581839  203638.081584
    8340.0000  209183.590000  184992.593184  192778.092466
    8340.5020  209236.590000  183328.590880  180941.090474
    8341.0030  209627.590000  181750.592333  169535.093292
    8341.4980  209354.590000  179627.581738  158559.087751
    8341.9990  209352.590000  177380.592462  146390.098203
    8342.5010  209234.590000  175231.588637  135541.092861
    8343.0030  209544.590000  173040.584040  123441.092295
    8343.4980  209440.590000  170602.590433  112223.096066
    8343.9990  209432.590000  167983.594269  100903.107174
    8344.5010  209373.590000  164971.588510  89690.097592
    8345.0020  209618.590000  162306.584116  80616.096762
    8345.4980  209918.590000  158880.586045  70891.099443
    8346.0000  209643.590000  155237.592538  62915.099993
    8346.5020  209839.590000  151758.597146  55703.115653
    8346.9980  209740.590000  148488.584229  49948.080774
    8347.5000  209598.590000  145621.592561  45370.105787
    8348.0010  209794.590000  143199.592545  41547.086943
    8348.4980  209428.590000  141282.597487  39103.114638
    8349.0000  209433.590000  140142.588876  37429.096988
    8349.5020  209303.590000  139615.592989  36596.107479
    8349.9990  209308.590000  139589.597374  36282.105931
    8350.5010  209568.590000  140121.595418  36435.099585
    8350.9980  209216.590000  140474.591802  36727.090046
    8351.5000  209206.590000  141436.596112  37314.109752
    8352.0020  208869.590000  142315.594206  37853.107841
    8352.4990  209044.590000  143930.591297  38548.114122
    8353.0020  209308.590000  145755.588883  39143.100332
    8353.4990  208956.590000  147214.591297  39420.119258
    8354.0010  208892.590000  148964.585489  39510.110312
    8354.4980  208660.590000  150261.597822  39305.118833
    8355.0010  208857.590000  152002.585741  38917.091805
    8355.4980  208892.590000  153314.596470  38374.109346
    8356.0020  208889.590000  154545.590178  37685.112964
    8356.4980  208894.590000  155613.593642  37044.095402
    8357.0010  208661.590000  156366.584793  36530.084467
    8357.4980  208773.590000  157405.592104  36214.111501
    8358.0020  208574.590000  158007.598409  36112.104833
    8358.4990  208588.590000  158699.589849  36268.117266
    8359.0030  208819.590000  159374.594795  36636.110271
    8359.5000  208592.590000  159599.590529  37058.106229
    8359.9980  208652.590000  159912.584666  37658.109397
    8360.5010  208809.590000  160125.596283  38224.110601
    8360.9990  208822.590000  160122.594876  38836.119938
    8361.5030  208702.590000  159931.584060  39340.090923
    8362.0000  208702.590000  159744.589504  39901.113236
    8362.4980  208884.590000  159686.592673  40548.107086
    8363.0020  208530.590000  159233.590237  41062.087277
    8363.5000  208729.590000  159221.591067  41782.094499
    8363.9980  208320.590000  158831.595193  42319.098748
    8364.5020  208708.590000  159139.594965  43131.119761
    8365.0000  208903.590000  159399.583539  43867.080044
    8365.4980  208618.590000  159379.596539  44478.092142
    8366.0030  208448.590000  159540.584812  45095.088588
    8366.5010  208491.590000  159859.595954  45602.106229
    8367.0000  208538.590000  160290.598429  46119.110476
    8367.4980  208765.590000  160854.598750  46555.113326
    8368.0030  208498.590000  161097.597766  46852.125630
    8368.5010  208454.590000  161490.597920  47118.086232
    8368.9990  208334.590000  161811.583422  47282.090766
    8369.4980  208495.590000  162423.592296  47474.118551
    8369.9970  208247.590000  162675.595875  47490.087657
    8370.8810  208424.590000  163624.586509  47406.089796
    8371.7820  208443.590000  164390.575293  46926.106064
    8372.7080  208198.580000  164816.566251  46006.106413
    8373.6460  208439.560000  165473.526140  44889.109675
    8374.6030  208377.530000  165723.490988  43340.073091
    8375.5840  208245.500000  165735.438359  41590.083946
    8376.5830  208458.470000  165822.383524  39873.073113
    8377.6010  208436.440000  165525.332677  38026.080400
    8378.6370  208482.390000  165080.243057  36270.062528
    8379.6900  208387.340000  164393.173736  34674.063554
    8380.7630  208523.300000  163867.075772  33547.038410
    8381.8540  208745.230000  163348.966835  32909.053858
    8382.9690  208219.170000  162223.858972  32740.021442
    8384.0960  208363.090000  161586.739128  33265.009636
    8385.2480  208480.030000  160896.621663  34315.016503
    8386.4180  208460.940000  160121.481347  35797.991395
    8387.6070  208342.860000  159343.346824  37571.969788
    8388.8130  208460.770000  158826.191654  39491.974342
    8390.0400  208436.670000  158287.033736  41363.963466
    8391.2840  208491.580000  157889.852957  43079.948495
    8392.5470  208522.470000  157577.689799  44533.895917
    8393.8340  208318.360000  157154.498207  45605.913334
    8395.1340  208457.250000  157125.301261  46314.893547
    8396.4590  208549.120000  157214.089057  46648.860528
    8397.7960  208797.000000  157619.892056  46828.846352
    8399.1570  208713.870000  157966.671501  47025.832149
    8400.5370  208769.730000  158504.435037  47433.777207
    8401.9370  208856.590000  159103.183440  47958.782504
    8403.3480  209070.450000  159806.958351  48384.744923
    8404.7840  208996.300000  160313.688416  48420.701947
    8406.2380  209021.140000  160805.425231  48100.669464
    8407.7190  209149.980000  161295.147706  47503.666725
    8409.2110  209280.810000  161777.872782  46848.652144
    8410.7220  209304.640000  162135.579926  46290.599149
    8412.2520  209442.470000  162560.281401  45766.569245
    8413.8070  209729.280000  163106.972115  45053.526298
    8415.3750  209724.090000  163430.644831  44021.524598
    8416.9610  209487.910000  163546.332413  42851.486228
    8418.5720  209764.700000  164076.999424  41819.461877
    8420.1960  209952.500000  164584.647884  40821.422899
    8421.8450  210105.300000  165087.301440  39782.393244
    8423.5070  210437.080000  165759.940659  38652.350998
    8425.1940  210463.860000  166155.558994  37318.323472
    8426.8940  210485.640000  166498.188964  36033.261133
    8428.6190  210651.410000  166895.819425  34958.225167
    8430.3560  211184.190000  167477.412441  34380.188785
    8432.1190  210816.940000  167312.006879  34231.161150
    8433.8960  211040.700000  167583.595750  34847.113447
    8435.6970  211133.450000  167707.165837  36011.070246
    8437.5110  211408.200000  167989.749340  37653.012402
    8439.3510  211648.940000  168294.304402  39545.988428
    8441.2090  211427.670000  168309.854756  41615.956115
    8443.0810  211722.410000  168797.408555  43817.892121
    8444.9720  212256.120000  169505.938007  45872.873850
    8446.8890  212190.860000  169736.469129  47463.787538
    8448.8170  212200.560000  170067.984375  49170.766260
    8450.7720  212295.280000  170455.477872  51483.693979
    8452.7400  212913.980000  171202.973884  54311.654434
    8454.7280  213056.690000  171442.490933  57081.603281
    8456.7400  212889.370000  171280.958627  59124.550314
    8458.7670  213317.060000  171464.440919  60237.489251
    8460.8130  213513.750000  171356.902988  60094.452537
    8462.8770  213607.440000  171174.368867  58922.424393
    8464.9620  213897.110000  171226.819092  57168.331789
    8467.0660  214005.780000  171322.256514  55046.282094
    8469.1890  214145.440000  171524.688129  52960.227661
    8471.3320  214530.110000  171959.107504  51345.161266
    8473.4890  214810.750000  172306.524160  50393.137643
    8475.6720  215125.410000  172660.918138  50267.043341
    8477.8670  215194.050000  172787.320891  50732.994560
    8480.0900  215295.690000  172999.704359  51325.971216
    8482.3250  215699.330000  173544.082899  51361.899731
    8484.5800  215802.950000  173925.443681  50002.835949
    8486.8550  215963.580000  174430.814124  47302.785430
    8489.1490  216332.190000  175173.172709  44091.677374
    8491.4650  216605.810000  175892.507893  41446.649992
    8493.7990  216978.410000  176769.841429  39839.566654
    8496.1460  216867.020000  177302.170441  39059.512893
    8498.5210  217100.610000  178130.492680  38929.424814
    8500.9090  217833.200000  179331.801979  39343.380212
    8503.3170  217777.800000  179873.113431  40245.318113
    8505.7460  218050.370000  180554.395258  42058.230189
    8508.1930  218377.950000  181151.677438  44863.146956
    8510.6620  218607.530000  181539.946723  48646.103923
    8513.1450  218898.090000  181841.218241  53457.015322
    8515.6460  219259.660000  182136.478801  59132.949463
    8518.1700  219490.220000  182349.737135  65083.852418
    8520.7120  219874.770000  182772.965512  70275.796938
    8523.2740  220126.310000  183154.199446  73271.719652
    8525.8590  220248.860000  183490.425472  73430.640122
    8528.4560  220434.390000  183908.637614  71206.563602
    8531.0740  220863.920000  184506.845406  67714.515444
    8533.7120  221214.450000  185023.028001  64072.374309
    8536.3710  221509.970000  185512.228138  61029.344126
    8539.0440  221857.480000  185977.406096  58819.250674
    8541.7370  222111.000000  186389.572081  57605.149049
    8544.4510  222508.500000  186916.726179  57397.066923
    8547.1870  222784.000000  187417.883008  57898.981410
    8549.9350  223184.500000  188125.027870  58802.935884
    8552.7120  223354.980000  188737.176055  59805.847735
    8555.5020  223685.470000  189560.306372  61073.753849
    8558.3070  224040.950000  190422.416215  62705.668337
    8561.1380  224558.420000  191291.529347  64247.550340
    8563.9850  224829.890000  191826.625484  64673.463582
    8566.8520  224632.360000  191848.713380  63273.405734
    8569.7400  225371.810000  192620.788030  60835.313057
    8572.6440  225621.280000  192998.871438  58178.236495
    8575.5660  225883.720000  193451.948524  56280.108133
    8578.5120  226371.170000  194146.998669  55209.033885
    8581.4720  226418.610000  194502.038281  54706.943685
    8584.4520  226986.050000  195345.104658  55152.868765
    8587.4540  227439.470000  196081.117235  56549.730511
    8590.4710  227719.890000  196614.138667  59027.658431
    8593.5080  228098.310000  197215.160937  62401.562819
    8596.5670  228598.720000  197925.154577  66462.438404
    8599.6420  228762.140000  198367.163338  70410.378473
    8602.7360  229202.530000  199057.140794  73870.260882
    8605.8540  229380.940000  199546.125462  76297.159911
    8608.9850  229635.330000  200131.095420  77605.052058
    8612.1390  229902.720000  200775.057192  78042.953649
    8615.3130  230210.090000  201510.003795  78240.845079
    8618.5030  230430.470000  202244.946322  78576.743257
    8621.7150  229442.840000  201985.888348  78609.639770
    8624.9410  231054.220000  204008.834972  79564.538837
    8628.1890  230761.580000  204242.733438  79767.428447
    8631.4540  232806.940000  206507.664185  80440.326708
    8634.7390  233210.280000  207246.547621  80079.207278
    8638.0470  233591.640000  207906.438301  79385.105512
    8641.3700  234266.970000  208833.328488  78760.993067
    8644.7140  234402.310000  209298.196501  78174.883461
    8648.0810  234574.640000  209855.066198  77857.772403
    8651.4570  234997.970000  210595.930428  77813.666352
    8654.8610  235583.300000  211422.788663  77806.545996
    8658.2810  235924.610000  212078.609366  77599.424028
    8661.7170  236450.920000  212832.455007  77276.296063
    8665.1740  236936.220000  213533.256992  76767.209627
    8668.6540  237459.530000  214311.080984  76466.107921
    8672.1500  237677.810000  214800.892369  76768.969616
    8675.6610  237871.110000  215318.688417  77895.890843
    8679.1950  238748.390000  216489.467193  79971.729893
    8682.7510  238912.670000  217015.247851  82277.610038
    8686.3230  239300.950000  217803.028382  84929.492717
    8689.9180  239287.220000  218277.781283  87275.368714
    8693.5230  240084.480000  219535.544074  89187.246366
    8697.1560  240695.750000  220679.280451  90199.125130
    8700.8060  241100.000000  221609.014941  90637.001539
    8704.4710  241413.250000  222413.749845  91264.874309
    8708.1590  241691.500000  223134.468955  92741.753782
    8711.8640  242645.730000  224429.168215  95423.621090
    8715.5850  242877.970000  225098.876354  98103.491398
    8719.3360  242849.200000  225514.575805  99764.368905
    8723.0970  243860.420000  226877.247755  100789.230780
    8726.8800  244161.640000  227626.936399  101333.103534
    8730.6800  244666.860000  228570.594508  102019.973234
    8734.4950  244827.060000  229186.248161  102363.845989
    8738.3420  245650.270000  230409.909468  102821.712082
    8742.1970  246033.470000  231216.546834  102972.576333
    8746.0770  246935.660000  232517.175837  103267.447113
    8749.9730  247076.840000  233086.794169  103208.301568
    8753.8860  247789.030000  234184.420944  103380.176664
    8757.8210  248190.200000  235002.012445  103433.032851
    8761.7740  248626.370000  235879.619369  103618.893974
    8765.7510  249008.550000  236720.204794  103837.759185
    8769.7380  249474.700000  237636.778516  104133.618445
    8773.7540  249698.860000  238428.360942  104491.475279
    8777.7810  250491.020000  239740.925110  105412.335206
    8781.8330  251239.170000  241020.466704  106762.191744
    8785.8950  251518.310000  241860.012991  108465.049870
    8789.9860  252245.440000  243131.563830  110944.903339
    8794.0890  252381.580000  243776.079898  113317.770297
    8798.2160  252949.700000  244858.605792  115624.610217
    8802.3590  253037.830000  245473.110877  117179.472589
    8806.5260  253965.940000  246881.610878  118584.325315
    8810.7050  254500.050000  247895.112306  119472.177794
    8814.9080  254825.160000  248690.597360  120221.027323
    8819.1280  255133.250000  249491.063695  121159.880238
    8823.3720  254839.360000  249696.531336  122149.732267
    8827.6280  251296.440000  246776.001368  122077.568261
    8831.9070  256044.530000  251941.436249  126177.426676
    8836.2050  256185.610000  252607.891578  128094.266619
    8840.5200  253549.690000  250445.314074  128077.120911
    8844.8530  259288.750000  256716.733968  132249.947606
    8849.2100  259649.810000  257612.152903  133803.789650
    8853.5860  259879.870000  258411.557941  135266.634346
    8857.9720  260131.940000  259253.955078  136539.479899
    8862.3840  260570.980000  260355.340010  137730.322751
    8866.8180  261321.030000  261655.718076  138609.175587
    8871.2680  261723.060000  262660.091054  139132.020038
    8875.7380  262416.090000  263983.465047  139714.837281
    8880.2230  262693.120000  264850.808002  139902.685701
    8884.7310  263280.160000  266047.158950  140129.526245
    8889.2580  263649.190000  267042.503192  140287.366078
    8893.8040  264335.190000  268365.813870  140949.197904
    8898.3680  264808.190000  269475.159238  142070.031071
    8902.9500  265429.190000  270710.472004  144018.862528
    8907.5510  265946.190000  271864.751387  146616.700983
    8912.1710  266761.190000  273329.065841  149572.531946
    8916.8080  266771.190000  273924.344885  151835.356780
    8921.4720  267527.160000  275324.596881  154195.187919
    8926.1470  267774.160000  276163.880293  155971.041512
    8930.8480  268658.120000  277691.118631  158012.858388
    8935.5670  268611.090000  278254.371687  159360.686454
    8940.3000  269083.030000  279349.625051  160942.496033
    8945.0570  269506.000000  280392.843832  162502.328931
    8949.8260  270437.970000  281958.093676  164494.158002
    8954.6220  270857.910000  283017.285713  166273.991024
    8959.4300  271626.840000  284471.497098  168264.805654
    8964.2640  272257.780000  285794.687766  170295.621713
    8969.1170  272454.720000  286640.874873  172268.451593
    8973.9820  272853.660000  287770.068357  174292.284778
    8978.8740  273416.560000  289024.246653  176265.094935
    8983.7780  274048.470000  290378.408286  178207.914664
    8988.7080  274547.370000  291558.559071  179890.723410
    8993.6510  274855.280000  292561.717554  181336.540498
    8998.6140  275942.190000  294382.845930  183283.368554
    9003.6030  275880.090000  295007.964651  184506.179250
    9008.6040  276542.000000  296424.093776  186112.006538
    9013.6260  276806.870000  297392.184066  187314.805405
    9018.6670  277856.750000  299227.314321  189104.624960
    9023.7280  278472.620000  300571.400722  190777.443647
    9028.8020  278706.500000  301506.470446  192390.252985
    9033.9020  278887.370000  302414.556149  194160.061576
    9039.0230  279992.220000  304327.625658  196656.870715
    9044.1570  280414.060000  305478.685381  198700.667037
    9049.3110  280533.940000  306315.720339  200717.477729
    9054.4850  280945.780000  307461.780043  203047.306122
    9059.6790  281142.620000  308370.806194  205263.100854
    9064.8940  281542.440000  309571.845719  207642.904701
    9070.1200  282333.280000  311180.841493  210187.718087
    9075.3760  283068.090000  312725.841015  212644.508961
    9080.6450  282715.910000  313090.861848  214413.317368
    9085.9340  282200.720000  313265.849918  216162.121964
    9091.2440  284046.530000  316078.804166  219644.924463
    9096.5660  284948.340000  317846.766623  222361.714535
    9101.9100  283666.160000  317184.763350  223448.542751
    9107.2820  286009.940000  320535.734248  227437.338540
    9112.6600  285655.720000  320908.652017  229368.116712
    9118.0660  287532.500000  323795.582130  233052.907202
    9123.4850  287054.280000  324017.532440  234876.730815
    9128.9280  287345.060000  325158.447153  237256.513963
    9134.3890  288348.840000  327050.337763  240025.315052
    9139.8710  289255.590000  328855.252428  242592.090209
    9145.3680  290143.340000  330656.137783  245054.877860
    9150.8870  289915.090000  331154.020872  246576.671825
    9156.4270  290495.840000  332610.905898  248907.478731
    9161.9790  290992.590000  333935.781299  251162.264641
    9167.5550  291482.340000  335278.631104  253659.069862
    9173.1510  292075.060000  336778.459521  256463.825642
    9178.7630  292539.780000  338121.317103  259253.632200
    9184.3950  292719.500000  339120.164659  261723.423998
    9190.0480  293352.220000  340691.986295  264537.231470
    9195.7170  294263.940000  342561.779555  267532.009190
    9201.4060  293595.660000  342627.590252  269168.779145
    9207.1110  294244.340000  344226.410389  272089.569198
    9212.8380  294881.030000  345779.188174  275141.355846
    9218.5870  295411.720000  347216.965141  278237.132396
    9224.3490  295923.410000  348684.768127  281412.923919
    9230.1340  296507.090000  350223.502924  284703.682954
    9235.9420  296683.780000  351248.256800  287560.466903
    9241.7650  295324.440000  350481.018185  288919.253268
    9247.6080  297552.120000  353950.758409  293746.045406
    9253.4680  298091.780000  355447.452602  296993.759164
    9259.3510  298222.440000  356477.188706  299884.575116
    9265.2470  297880.090000  356853.888816  302224.319961
    9271.1660  299574.720000  359790.590416  306704.109130
    9277.1010  299994.370000  361175.289806  309871.875688
    9283.0580  300454.000000  362566.013548  313031.668912
    9289.0300  300729.620000  363804.664874  316042.433764
    9295.0260  300892.250000  364847.342817  318805.222090
    9301.0440  301513.870000  366482.004229  322051.966261
    9307.0770  302150.500000  368132.614085  325352.736749
    9313.1270  302959.090000  370011.275646  328912.540110
    9319.1990  303088.690000  371074.914816  331804.277326
    9325.2870  303248.310000  372157.545806  334797.065904
    9331.3970  303781.910000  373694.172621  338241.826485
    9337.5240  304338.470000  375285.762914  341742.606183
    9343.6740  304713.060000  376680.348905  345206.347491
    9349.8410  305042.660000  377979.943875  348614.098573
    9356.0210  305518.220000  379496.516180  352275.861731
    9362.2270  305830.780000  380776.101565  355741.631251
    9368.4490  306449.340000  382512.662095  359646.410682
    9374.6930  306699.910000  383756.208654  363110.144885
    9380.9540  307148.470000  385236.775410  366819.901617
    9387.2380  307582.000000  386737.325989  370626.667302
    9393.5310  308126.560000  388389.851725  374654.443695
    9399.8560  308386.090000  389638.324944  378315.168345
    9406.1890  309125.620000  391534.851342  382659.913918
    9412.5490  309031.160000  392374.371445  385981.686191
    9418.9230  310007.660000  394552.892806  390752.455696
    9425.3200  310334.190000  395903.363171  394763.206954
    9431.7350  310526.690000  397359.835101  398029.959991
    9438.1670  311353.190000  399173.287441  403318.695441
    9444.6220  311253.720000  400027.741925  406866.429900
    9451.0880  311777.190000  401659.171967  411242.172342

