# XDI/1.0  SSRL EXAFS Data Collector 1.1 AD.RGN
# Column.1: energy eV
# Column.2: mutrans
# Column.3: i0
# Beamline.name: SSRL 4-3 (?)
# Element.edge: K
# Element.symbol: Sr
# Mono.d_spacing: 1.92009
# Mono.name: Si(220)
# Mono.notes: (?) unfocussed, detuned 75%, clockwise at E=16300eV
# Sample.formula: SrAl2(SiO4)2
# Sample.name: slawsonite
# Sample.prep: powder mixed with B2O3
# Sample.reference: none
# Sample.temperature: room temperature
# Scan.start_time: 1997-03-18 19:29:57
# ///
#    Note: mono d_spacing is nominal!
#--------------------------------------------
# energy     mutrans      i0
  15700.043  0.16700209   70449.602
  15709.991  0.16741691   70347.602
  15719.954  0.16596582   69905.602
  15729.931  0.16727933   69712.602
  15739.919  0.17651992   68498.602
  15749.921  0.16240324   69040.602
  15759.935  0.16386217   68765.602
  15769.963    0.162124   68321.602
  15780.002  0.16285426   68112.602
  15790.057  0.16295922   67912.602
  15799.958   0.1648769   67790.602
  15810.037   0.1634032   67364.602
  15819.965  0.16178899   66925.602
  15830.071  0.16314264   66719.602
  15840.023  0.16496074   66647.602
  15849.989  0.16008645   65884.602
  15859.968   0.1644616   65989.602
  15869.959  0.16609457   65843.602
  15879.964  0.16469833   65421.602
  15889.980  0.16463371   65023.602
  15900.011  0.16356729   64684.602
  15910.055  0.16291031   64372.602
  15919.941  0.16403429   64184.602
  15930.011  0.16478525   63928.602
  15939.925  0.16515409   63685.602
  15950.020  0.16009797   62946.602
  15959.959  0.16450595   63006.602
  15970.079   0.1637659   62553.602
  15980.045  0.16316762   62246.602
  15990.021  0.16052045   61802.602
  16000.012  0.16276438   61649.602
  16010.014   0.1626342   61348.602
  16020.030   0.1602267   60846.602
  16030.059  0.16150553   60556.602
  16039.929  0.16096273   60159.602
  16049.982  0.16159567   59848.602
  16060.049  0.16206934   59620.602
  16069.959  0.16245259   59217.602
  16080.051  0.16463494   58863.602
  16081.248  0.16456134   58762.602
  16082.448  0.16592464   58828.602
  16083.646  0.16526695   58715.602
  16084.846  0.16573634   58621.602
  16086.215   0.1656407   58508.602
  16087.415  0.16782818   58590.602
  16088.613  0.16975149   58576.602
  16089.813  0.17008185   58478.602
  16091.013  0.17251817   58402.602
  16092.214  0.17416318   58297.602
  16093.586  0.17668535   58165.602
  16094.785  0.18101448   58228.602
  16095.986  0.18697643   58147.602
  16097.187    0.195563   58083.602
  16098.387  0.20956482   58024.602
  16099.588  0.22909536   57965.602
  16100.962  0.26137693   57894.602
  16102.162  0.29816954   57722.602
  16103.364  0.34009423   57691.602
  16104.565  0.38961196   57689.602
  16105.769  0.43614522   57560.602
  16106.970  0.48699922   57614.602
  16108.173  0.52361633   57472.602
  16109.547  0.54571892   57412.602
  16110.750  0.54878101   57434.602
  16111.952  0.53893814   57276.602
  16113.155   0.5227073   57128.602
  16114.359  0.50642289   57239.602
  16115.563  0.48769866   57112.602
  16116.767  0.47598994   57120.602
  16118.143  0.46633356   57027.602
  16119.345  0.45993695   56958.602
  16120.551  0.45338643   56915.602
  16121.754  0.44708914   56761.602
  16122.960  0.44276407   56720.602
  16124.163  0.43764846   56728.602
  16125.369  0.43196849   56533.602
  16126.746  0.42756799   56524.602
  16127.951  0.42492949   56424.602
  16129.157   0.4225348   56257.602
  16130.362  0.42335765   56314.602
  16131.568  0.42468144   56147.602
  16132.774  0.42702941   55928.602
  16133.980  0.43037237   55860.602
  16135.188  0.43313251   55780.602
  16136.568  0.43744075   55756.602
  16137.773   0.4419488   55731.602
  16138.981  0.44690812   55883.602
  16140.188  0.45064153   55899.602
  16141.396   0.4559392   55781.602
  16142.603  0.45925915   55661.602
  16143.812  0.46394467   55563.602
  16145.020   0.4666047   55534.602
  16146.400  0.46822305   55370.602
  16147.607  0.46865838   55327.602
  16148.817  0.46818949   55226.602
  16150.024  0.46735039    110646.2
  16151.062  0.46556929   110602.19
  16152.271   0.4623516   110326.16
  16153.481  0.45939369   110171.09
  16154.517  0.45671686   110050.01
  16155.727  0.45341174   109736.91
  16156.937   0.4519837   109554.77
  16158.146   0.4517454   109559.62
  16159.528  0.44911274   109222.45
  16160.740  0.44811686   109080.24
  16162.122  0.44668435   108839.02
  16163.334  0.44490138   108628.77
  16164.718  0.44347345    108474.5
  16166.102  0.44258525    108402.2
  16167.486  0.44063052   108285.88
  16168.871  0.44002032   108299.54
  16170.257  0.43742539   108174.18
  16171.642  0.43552533   108123.79
  16173.200  0.43197776   107958.37
  16174.586  0.43001445   107955.94
  16176.146   0.4288528   108056.48
  16177.705   0.4275132   108190.99
  16179.265  0.42806888   108355.48
  16180.825  0.42948007   108529.95
  16182.386  0.43153156    108954.4
  16183.946  0.43444797   109443.82
  16185.680  0.43741641   109953.21
  16187.242  0.43906264   110453.59
  16188.977  0.44170603   111037.94
  16190.539  0.44261338   111303.27
  16192.275   0.4443115   111549.57
  16194.011  0.44510705   111743.85
  16195.748  0.44526765    111825.1
  16197.485  0.44468062   111866.34
  16199.396  0.44359159   111952.55
  16201.134  0.44330679   112201.73
  16203.046  0.44202039   112373.89
  16204.785  0.44063585   112396.03
  16206.698  0.43912882   112663.14
  16208.612  0.43707197   112825.23
  16210.525  0.43547573    113211.3
  16212.439  0.43352754   113395.34
  16214.355  0.43193289   113695.36
  16216.271  0.42976649   113781.36
  16218.360   0.4283169   113983.33
  16220.276  0.42715268   114370.28
  16222.367  0.42578265    114544.2
  16224.459  0.42486154   114885.11
  16226.551  0.42412983   115026.98
  16228.644  0.42438901   115210.84
  16230.738  0.42477595   115629.67
  16232.832  0.42488278   115950.48
  16234.925  0.42526144   116347.26
  16237.194  0.42570421   116666.02
  16239.290  0.42567321   116964.76
  16241.561  0.42543728   117294.47
  16243.832  0.42492791   117662.16
  16246.104  0.42485698   118065.82
  16248.377  0.42516188   118414.46
  16250.650  0.42469817   118730.08
  16252.925  0.42422483   119178.67
  16255.199  0.42345876   119480.24
  16257.649  0.42360125   119845.79
  16259.925  0.42363183   120303.31
  16262.377   0.4239996   120680.81
  16264.830  0.42399363   121042.29
  16267.282   0.4242537   121475.74
  16269.737   0.4244968   121982.17
  16272.192  0.42417106   122281.58
  16274.646  0.42304278   122573.96
  16277.279  0.42186985   123096.32
  16279.736  0.42096932   123440.66
  16282.369  0.42079365   123873.96
  16284.828  0.42033383   124375.25
  16287.463  0.41982699   124687.52
  16290.099  0.41943634   125293.76
  16292.735  0.41891161   125874.97
  16295.373  0.41782751   126093.16
  16298.013  0.41651999   126681.34
  16300.827  0.41586651   127208.48
  16303.468  0.41468353    127603.6
  16306.286   0.4142314    128213.7
  16309.104  0.41360832   128696.77
  16311.748  0.41265975   129097.82
  16314.567  0.41211068   129730.85
  16317.388  0.41209472   130166.85
  16320.211  0.41214355   130852.84
  16323.212  0.41184557    131192.8
  16326.035  0.41226728   131634.72
  16328.861  0.41250437   132209.64
  16331.863   0.4123883   132686.52
  16334.867  0.41204737   133071.37
  16337.696  0.41185521   133631.22
  16340.703  0.41136434   134291.03
  16343.710  0.41111322   134962.83
  16346.719  0.41029646   135468.59
  16349.905  0.40940465   135880.34
  16352.918  0.40887695   136267.06
  16355.929  0.40775544   136836.75
  16359.119  0.40682027   137346.42
  16362.312  0.40609265   137921.08
  16365.326  0.40497107    138468.7
  16368.521  0.40395621    138953.3
  16371.717  0.40315488   139512.87
  16374.914   0.4026842   140219.44
  16378.111  0.40208079   140629.97
  16381.488  0.40153409   141152.47
  16384.689   0.4015195   141683.95
  16388.068  0.40099304   142290.42
  16391.271  0.40069527   142919.86
  16394.656  0.40023084   143365.27
  16398.039  0.39997171   143842.66
  16401.424  0.39954938   144490.03
  16404.813  0.39870357   145142.36
  16408.199   0.3980833   145638.69
  16411.590  0.39763107   146393.98
  16415.160   0.3970198   146753.25
  16418.553   0.3963339    147426.5
  16422.127  0.39563301   147968.72
  16425.521  0.39490929   148528.92
  16429.098  0.39414951   149099.09
  16432.676  0.39371955   149707.25
  16436.254  0.39324425   150112.37
  16439.834   0.3922423   150834.48
  16443.416  0.39182251   151468.58
  16447.180  0.39120536   151996.62
  16450.766  0.39087471   152527.67
  16454.354  0.39038156   153148.67
  16458.121  0.38981522   153664.66
  16461.891  0.38908573   154225.62
  16465.662  0.38855243   154665.56
  16469.438  0.38790027   155086.48
  16473.211  0.38733476   155838.37
  16476.988  0.38664068   156354.25
  16480.768   0.3860521   156846.09
  16484.549  0.38531228   157486.92
  16488.510  0.38455339   157929.72
  16492.295  0.38382045   158550.48
  16496.260  0.38295051   159088.25
  16500.229  0.38234351   159512.97
  16504.199  0.38153862   160038.67
  16508.172  0.38084095   160649.36
  16512.145  0.38001956   161378.02
  16516.121  0.37939036   161845.64
  16520.100  0.37869646   161963.25
  16524.080  0.37803029   162738.84
  16528.242   0.3773198   163475.41
  16532.227  0.37681593   163926.94
  16536.393   0.3761212   164416.45
  16540.563  0.37556544   164700.95
  16544.734  0.37498686   165557.42
  16548.906  0.37429304   165974.86
  16553.084  0.37366428   166777.28
  16557.262  0.37301002   167289.69
  16561.441  0.37232131   167675.06
  16565.807  0.37107098   168236.41
  16569.990  0.37054672   168915.73
  16574.357  0.36969459   169116.03
  16578.549  0.36876188   169993.31
  16582.922  0.36781334   170500.56
  16587.297  0.36695722    170567.8
  16591.674  0.36634354   171129.02
  16596.055  0.36570874   171762.19
  16600.438  0.36482498   172138.36
  16604.822  0.36417655   172430.48
  16609.393  0.36327358   173119.61
  16613.783  0.36250929   173539.69
  16618.357  0.36164898   174131.77
  16622.754  0.36081584    174586.8
  16627.332  0.35992552   175192.83
  16631.916   0.3593739   175471.81
  16636.502  0.35835757    176402.8
  16641.090  0.35768392   176415.73
  16645.682  0.35669842   177250.66
  16650.273  0.35607886   177236.56
  16655.053  0.35528241   177600.44
  16659.652  0.35452936    178028.3
  16664.254  0.35346536   178451.12
  16669.043  0.35270947   178308.94
  16673.832  0.35219186   178776.72
  16678.625  0.35123498   179581.47
  16683.420  0.35049185    179588.2
  16688.221  0.34961447   180096.92
  16693.023  0.34842865   180646.61
  16697.828  0.34769965   180759.28
  16702.635  0.34668572   181235.92
  16707.445  0.34571556   182048.53
  16712.445  0.34517611   181924.12
  16717.260  0.34406158    182263.7
  16722.264  0.34303941   182671.25
  16727.271   0.3423961   182483.77
  16732.281  0.34150433   183005.27
  16737.295  0.34061018   183270.75
  16742.313  0.33942088    183623.2
  16747.332  0.33884165   183769.62
  16752.355  0.33765825   184120.03
  16757.381  0.33699115   184263.41
  16762.596  0.33585381   184575.77
  16767.629  0.33500885   184730.11
  16772.852  0.33428957   184552.41
  16777.889  0.33301867    184278.7
  16783.117   0.3326482   184463.97
  16788.348  0.33178148    185619.2
  16793.584  0.33083659   185521.42
  16798.822  0.32984984   185539.61
  16804.063   0.3288348   186035.78
  16809.309  0.32807808   186167.92
  16814.744  0.32705616   186382.05
  16819.996  0.32596456   186502.14
  16825.438   0.3252129   186941.22
  16830.697  0.32456781   186814.27
  16836.146  0.32347952    187269.3
  16841.600  0.32246165    187424.3
  16847.059  0.32157625   187035.28
  16852.330  0.32052011   187141.23
  16857.982  0.31939496   187663.17
  16863.451  0.31834414   187473.08
  16868.922  0.31768813   187161.97
  16874.396  0.31688411   187866.83
  16880.064  0.31582053   187724.66
  16885.547  0.31451936   187469.47
  16891.223  0.31359567   187820.27
  16896.711  0.31297627   187850.03
  16902.396  0.31213509   187747.78
  16908.082   0.3115182    187399.5
  16913.773  0.31034386   187584.19
  16919.469  0.30945937   187804.86
  16925.166  0.30836826   187731.52
  16930.869  0.30726818   187867.14
  16936.576  0.30641371   187674.73
  16942.287  0.30529468   187438.31
  16948.191  0.30446722   187546.87
  16953.910  0.30359053   187789.41
  16959.822  0.30286466   187122.91
  16965.740  0.30160397   187843.39
  16971.471  0.30101691   187638.86
  16977.396  0.30001075    187388.3
  16983.326  0.29911528    186953.7
  16989.260  0.29806103   186719.09
  16995.197  0.29693913   186547.45
  17001.332  0.29609227    186499.8
