# XDI/1.0  SSRL EXAFS Data Collector 1.1 AD.RGN
# Column.1: energy eV
# Column.2: mutrans
# Column.3: i0
# Beamline.name: SSRL 4-3 (?)
# Element.edge: K
# Element.symbol: Sr
# Mono.d_spacing: 1.92009
# Mono.name: Si(220)
# Mono.notes: (?) unfocussed, detuned 75%, clockwise at E=16300eV
# Sample.formula: SrAl2(SiO4)2
# Sample.name: slawsonite
# Sample.prep: powder mixed with B2O3
# Sample.reference: none
# Sample.temperature: room temperature
# Scan.start_time: 1997-03-18 19:29:57
# ///
#    Note: mono d_spacing is nominal!
#--------------------------------------------
# energy     mutrans      i0
  15700.043   0.2058071   66648.602
  15709.991  0.20427516   66151.602
  15719.954  0.20038461   65585.602
  15729.931  0.20084939   65360.602
  15739.919  0.20521801   63872.602
  15749.921  0.19956135   64956.602
  15759.935  0.19560962   64335.602
  15769.963  0.19540398   64047.602
  15780.002    0.194245   63668.602
  15790.057  0.19374125   63307.602
  15799.958  0.19375772   63058.602
  15810.037  0.19350149   62804.602
  15819.965  0.19173579   62394.602
  15830.071  0.19062806   62020.602
  15840.023   0.1861454   61427.602
  15849.989  0.18976138   61444.602
  15859.968  0.19037659   61206.602
  15869.959    0.186047   60626.602
  15879.964  0.18318207   60037.602
  15889.980  0.18566664   59901.602
  15900.011  0.18690457   59669.602
  15910.055  0.18255578   59098.602
  15919.941  0.18534272   59086.602
  15930.011  0.18441609   58709.602
  15939.925  0.18169725   58221.602
  15950.020  0.18129781   57952.602
  15959.959  0.18058288   57556.602
  15970.079  0.17979654   57178.602
  15980.045  0.17835521   56755.602
  15990.021  0.17784866   56516.602
  16000.012  0.17538403   55986.602
  16010.014  0.17524587   55734.602
  16020.030  0.17467109   55334.602
  16030.059  0.17425652   54998.602
  16039.929  0.17363611   54676.602
  16049.982  0.17264742   54269.602
  16060.049  0.17248599   53981.602
  16069.959  0.17200423   53550.602
  16080.051  0.17348026   53145.602
  16081.248  0.17398936   53084.602
  16082.448  0.17503898   53160.602
  16083.646  0.17438222   53037.602
  16084.846  0.17546206   52993.602
  16086.215  0.17645738   52973.602
  16087.415   0.1768816   52863.602
  16088.613  0.17800322   52859.602
  16089.813  0.17983502   52762.602
  16091.013  0.18030224   52716.602
  16092.214  0.18247423   52671.602
  16093.586  0.18519208   52623.602
  16094.785  0.18917605   52618.602
  16095.986  0.19426512   52578.602
  16097.187  0.20096745   52467.602
  16098.387  0.21431192   52478.602
  16099.588  0.23324184   52448.602
  16100.962  0.26449229   52362.602
  16102.162  0.30127389   52237.602
  16103.364  0.34163346   52172.602
  16104.565  0.39125352   52179.602
  16105.769  0.43919655   52312.602
  16106.970   0.4899868   52106.602
  16108.173   0.5286888   52082.602
  16109.547  0.55467105   52032.602
  16110.750  0.55865124   51993.602
  16111.952  0.55095777   51971.602
  16113.155  0.53504564   51907.602
  16114.359  0.51738528   51864.602
  16115.563  0.49828268   51806.602
  16116.767  0.48567189   51737.602
  16118.143  0.47495771   51705.602
  16119.345  0.46794346   51631.602
  16120.551  0.46111446   51527.602
  16121.754  0.45583568   51516.602
  16122.960  0.45143285   51486.602
  16124.163  0.44513789   51358.602
  16125.369  0.44085466   51412.602
  16126.746  0.43563054   51359.602
  16127.951  0.43145435   51205.602
  16129.157  0.43026237   51144.602
  16130.362  0.42957685   51069.602
  16131.568  0.43138379   51069.602
  16132.774  0.43340419   50799.602
  16133.980  0.43659552   50737.602
  16135.188  0.44009653   50755.602
  16136.568   0.4439804   50714.602
  16137.773  0.44843343   50754.602
  16138.981  0.45299108   50709.602
  16140.188   0.4572131   50873.602
  16141.396  0.46214763   50777.602
  16142.603  0.46649789   50764.602
  16143.812  0.47061817   50655.602
  16145.020  0.47459143   50667.602
  16146.400  0.47636256   50533.602
  16147.607  0.47668338   50517.602
  16148.817  0.47586371   50474.602
  16150.024    0.473851    100844.2
  16151.062  0.47095161   100749.19
  16152.271  0.46893615   100610.16
  16153.481  0.46563814   100465.09
  16154.517  0.46329356   100460.01
  16155.727  0.46086205   100302.91
  16156.937  0.45790241   100097.77
  16158.146  0.45647572   100025.63
  16159.528  0.45488544   99872.445
  16160.740  0.45335247   99695.242
  16162.122  0.45185267   99432.016
  16163.334  0.45074062   99411.773
  16164.718  0.44971874     99207.5
  16166.102  0.44817595   99174.203
  16167.486  0.44673947   99191.883
  16168.871  0.44414906   99021.539
  16170.257  0.44243056    99023.18
  16171.642  0.43974568   98987.789
  16173.200  0.43667114   98868.375
  16174.586  0.43442667   98961.938
  16176.146  0.43283911   99133.477
  16177.705  0.43216994   99322.992
  16179.265  0.43219399   99385.484
  16180.825  0.43352859   99835.953
  16182.386  0.43501135    100084.4
  16183.946  0.43742468   100573.82
  16185.680  0.44024996   101212.21
  16187.242  0.44290376   101569.59
  16188.977   0.4449154   101921.94
  16190.539  0.44684239   102296.27
  16192.275  0.44841866   102480.57
  16194.011  0.44913515   102692.85
  16195.748  0.44901959    102887.1
  16197.485  0.44853257   102886.34
  16199.396  0.44778052   103119.55
  16201.134  0.44710412   103289.73
  16203.046   0.4457074   103456.89
  16204.785  0.44438181   103679.03
  16206.698  0.44287964   104022.14
  16208.612  0.44032426   104128.23
  16210.525  0.43917021    104306.3
  16212.439  0.43689149   104578.34
  16214.355  0.43526533   104878.36
  16216.271  0.43314581   105040.36
  16218.360  0.43166191   105357.33
  16220.276  0.42980679   105569.28
  16222.367  0.42903633    105847.2
  16224.459  0.42830162   106228.11
  16226.551  0.42731391   106470.98
  16228.644  0.42773536   106734.84
  16230.738  0.42773125   107060.67
  16232.832  0.42792731   107432.48
  16234.925  0.42802059   107770.26
  16237.194  0.42818807   107981.02
  16239.290   0.4280334   108328.76
  16241.561  0.42800442   108734.47
  16243.832  0.42790984   109030.16
  16246.104  0.42746991   109327.82
  16248.377  0.42698209   109834.46
  16250.650  0.42712263   110117.08
  16252.925  0.42655883   110522.67
  16255.199  0.42624643   110914.24
  16257.649  0.42581309   111354.79
  16259.925  0.42567548   111647.31
  16262.377  0.42581916   112200.81
  16264.830  0.42624518   112400.29
  16267.282  0.42625028   112881.74
  16269.737  0.42594368   113248.17
  16272.192  0.42562422   113724.58
  16274.646  0.42492937   114013.96
  16277.279  0.42401595   114467.32
  16279.736  0.42300202   114880.66
  16282.369  0.42241064   115446.96
  16284.828  0.42178828   115722.25
  16287.463  0.42197038   116247.52
  16290.099  0.42119261   116622.76
  16292.735  0.42075509   117225.97
  16295.373  0.41946351   117670.16
  16298.013  0.41855997   117970.34
  16300.827  0.41756155   118416.48
  16303.468  0.41676503    118935.6
  16306.286  0.41601797    119224.7
  16309.104  0.41529911   119790.77
  16311.748  0.41430156   120258.82
  16314.567  0.41379481   120887.85
  16317.388  0.41324331   121398.85
  16320.211  0.41314113   121815.84
  16323.212  0.41327916   122166.79
  16326.035  0.41339451   122735.73
  16328.861   0.4135999   123291.63
  16331.863  0.41367348   123849.52
  16334.867  0.41354714   124299.38
  16337.696  0.41309776   124769.22
  16340.703  0.41276831   125317.03
  16343.710  0.41206595   125797.83
  16346.719  0.41118749   126430.59
  16349.905  0.41056827   126763.34
  16352.918  0.40992446   127347.05
  16355.929   0.4088777   127992.75
  16359.119  0.40791827   128359.42
  16362.312  0.40687727   128988.08
  16365.326  0.40560091    129413.7
  16368.521  0.40475898    129981.3
  16371.717  0.40385346   130612.88
  16374.914  0.40346537   131125.44
  16378.111  0.40301286   131652.97
  16381.488  0.40233289   132275.47
  16384.689  0.40187795   132633.95
  16388.068  0.40165038   133243.42
  16391.271  0.40108926   133813.86
  16394.656  0.40078881   134381.27
  16398.039  0.40016629   134928.66
  16401.424  0.39985721   135552.03
  16404.813   0.3993699   136201.36
  16408.199  0.39859067   136711.69
  16411.590  0.39790785   137275.98
  16415.160  0.39732761   137947.25
  16418.553  0.39659807    138421.5
  16422.127   0.3960944   138826.72
  16425.521  0.39565183   139444.92
  16429.098   0.3942924   139980.09
  16432.676  0.39402654   140449.25
  16436.254  0.39339153   141005.37
  16439.834  0.39274047   141629.48
  16443.416  0.39208354   142269.58
  16447.180  0.39162539   142793.62
  16450.766  0.39091317   143314.67
  16454.354  0.39072567   144022.67
  16458.121  0.38990912   144457.66
  16461.891  0.38916134   145121.62
  16465.662  0.38869628   145536.56
  16469.438  0.38821373   146349.48
  16473.211  0.38757286   146880.37
  16476.988  0.38676173   147550.25
  16480.768  0.38599426   148009.09
  16484.549   0.3852689   148493.92
  16488.510   0.3845418   148689.72
  16492.295  0.38366389   149323.48
  16496.260  0.38273055   149921.25
  16500.229  0.38214457   150443.97
  16504.199  0.38138328   150993.67
  16508.172  0.38064979   151476.36
  16512.145   0.3797982   152449.02
  16516.121  0.37918943   152666.64
  16520.100  0.37854015   153022.25
  16524.080  0.37804614   153876.84
  16528.242  0.37765293   154327.41
  16532.227  0.37694299   154920.94
  16536.393  0.37640907   155198.45
  16540.563  0.37555089   155826.95
  16544.734  0.37478422   156503.42
  16548.906  0.37410643   157013.86
  16553.084  0.37349238   157494.28
  16557.262  0.37273891   158005.69
  16561.441  0.37181174   158403.06
  16565.807  0.37108764   158898.41
  16569.990  0.37026169   159318.73
  16574.357  0.36926647   159918.03
  16578.549  0.36852103   160521.31
  16582.922  0.36781801   160773.56
  16587.297  0.36695056    161496.8
  16591.674  0.36621227   161478.02
  16596.055  0.36539674   162020.19
  16600.438   0.3647861   162420.36
  16604.822   0.3638791   162905.48
  16609.393  0.36305572   163266.61
  16613.783  0.36234451   163988.69
  16618.357  0.36134699   164211.77
  16622.754  0.36055218    165059.8
  16627.332  0.36022576   165199.83
  16631.916  0.35929776   165778.81
  16636.502  0.35861733    166082.8
  16641.090  0.35778145   166557.73
  16645.682  0.35685561   166956.66
  16650.273   0.3562868   167341.56
  16655.053  0.35525046   167901.44
  16659.652  0.35430495    168016.3
  16664.254  0.35344379   168562.12
  16669.043  0.35269256   168635.94
  16673.832   0.3517565   169377.72
  16678.625  0.35113396   169665.47
  16683.420  0.35015321    170387.2
  16688.221  0.34928599   171079.92
  16693.023   0.3483963   171465.61
  16697.828  0.34753827   171513.28
  16702.635   0.3466642   171813.92
  16707.445  0.34645904   172261.53
  16712.445  0.34542467   172317.12
  16717.260  0.34411311    172788.7
  16722.264   0.3433646   172974.25
  16727.271  0.34252522   173233.77
  16732.281  0.34176774   173622.27
  16737.295  0.34116539   173551.75
  16742.313  0.33980978    174203.2
  16747.332  0.33899439   174559.62
  16752.355  0.33959783   175165.03
  16757.381  0.33880197   175247.41
  16762.596   0.3374321   175535.77
  16767.629   0.3354368   175622.11
  16772.852  0.33455455   175802.41
  16777.889  0.33364258    175080.7
  16783.117  0.33308324   175961.97
  16788.348  0.33195601    176991.2
  16793.584   0.3308056   176972.42
  16798.822  0.32974709   177065.61
  16804.063  0.32891451   177695.78
  16809.309  0.32798424   177343.92
  16814.744  0.32697601   177507.05
  16819.996  0.32559616   177645.14
  16825.438  0.32487271   178119.22
  16830.697  0.32469778   177979.27
  16836.146  0.32365858    178194.3
  16841.600  0.32266168    178235.3
  16847.059  0.32183504   178146.28
  16852.330   0.3210226   178003.23
  16857.982  0.31998854   178450.17
  16863.451  0.31904242   178547.08
  16868.922  0.31788577   178605.97
  16874.396  0.31695888   178971.83
  16880.064   0.3160382   178613.66
  16885.547  0.31502615   179345.47
  16891.223  0.31423907   179271.27
  16896.711  0.31313674   179068.03
  16902.396  0.31237133   179042.78
  16908.082  0.31121291    179281.5
  16913.773  0.31049661   178776.19
  16919.469   0.3094854   178819.86
  16925.166  0.30851139   179501.52
  16930.869  0.30737565   179006.14
  16936.576  0.30574206   179447.73
  16942.287  0.30495014   179599.31
  16948.191  0.30433473   179075.87
  16953.910  0.30294908   179754.41
  16959.822  0.30219947   178817.91
  16965.740  0.30123442   179409.39
  16971.471  0.30043052   179239.86
  16977.396   0.2992159    179381.3
  16983.326  0.29817535    179015.7
  16989.260  0.29729268   178812.09
  16995.197  0.29627821   178898.45
  17001.332  0.29548623    178881.8
