# XDI/1.0 EXAFS Data Collector 1.1 AD.RGN
# Column.1: energy eV
# Column.2: mutrans
# Column.3: i0
# Beamline.name: SSRL 4-3 (?)
# Detector.I0: N2 15cm
# Detector.I1: Ar 30cm
# Element.edge: K
# Element.symbol: Sr
# Mono.d_spacing: 1.92009
# Mono.name: Si(220)
# Mono.notes: (?) unfocussed, detuned 50%, clockwise at E=16800eV
# Sample.formula: SrCO3
# Sample.name: strontianite
# Sample.prep: powder mixed with B2O3 (1:10)
# Sample.reference: none
# Sample.temperature: 12K
# Scan.start_time: 1997-03-17 13:38:14
# ///
#    Note: mono d_spacing is nominal!
#-------------
#   energy   mutrans      i0
  15700.043 -0.031133559   51386.199
  15709.991 -0.033460098   50843.199
  15719.954 -0.036098956   50410.199
  15729.931 -0.038109448   49839.199
  15739.919 -0.037678476   48623.199
  15749.921 -0.038104242   49331.199
  15759.935 -0.040757861   48774.199
  15769.963 -0.040448609   48452.199
  15780.002 -0.041372657   47987.199
  15790.057 -0.045165731   47531.199
  15799.958 -0.043572466   47153.199
  15810.037 -0.045864704   46641.199
  15819.965 -0.044084728   46349.199
  15830.071 -0.044770693   45907.199
  15840.023 -0.04723987   45624.199
  15849.989 -0.047249961   45242.199
  15859.968 -0.048409338   44798.199
  15869.959 -0.048992491   44431.199
  15879.964 -0.050977634   44073.199
  15889.980 -0.051224419   43703.199
  15900.011 -0.051643879   43320.199
  15910.055 -0.052890001   42954.199
  15919.941 -0.053676305   42580.199
  15930.011 -0.05431007   42213.199
  15939.925 -0.055094973   41807.199
  15950.020 -0.056209166   41526.199
  15959.959 -0.057122998   41098.199
  15970.079 -0.058071329   40742.199
  15980.045 -0.059337934   40403.199
  15990.021 -0.059738901   39945.199
  16000.012 -0.060507157   39663.199
  16010.014 -0.061447401   39148.199
  16020.030 -0.062153149   38908.199
  16030.059 -0.062723652   38543.199
  16039.929 -0.063338296   38203.199
  16049.982 -0.063447198   37830.199
  16060.049 -0.063290322   37437.199
  16069.959 -0.062444018   37076.199
  16080.051 -0.059567768   36821.199
  16089.984 -0.049483389   36449.199
  16099.931  0.08130978   35919.199
  16110.063  0.57514766   35612.199
  16120.035  0.33462369   35173.199
  16121.238  0.32793755   35430.199
  16122.443  0.32234442   35358.199
  16123.819  0.31801557   35252.199
  16125.024  0.31612664   35228.199
  16126.229  0.31422469   35146.199
  16127.435  0.31398167   35017.199
  16128.813  0.31760376   35074.199
  16130.019  0.32304576   35043.199
  16131.225  0.32873015   34801.199
  16132.431   0.3361121   34646.199
  16133.809    0.343764   34647.199
  16135.016  0.34950111   34696.199
  16136.221  0.35688588   34816.199
  16137.429  0.36426929   34789.199
  16138.808  0.37377871   34668.199
  16140.016  0.38328039   34619.199
  16141.223  0.39056661   34550.199
  16142.431  0.39949263   34572.199
  16143.812  0.40771085   34504.199
  16145.020  0.41236507   34452.199
  16146.228   0.4158109   34530.199
  16147.436  0.41607381   34342.199
  16148.817  0.41538798   34323.199
  16150.024   0.4125629   34202.199
  16151.234  0.40947758   34187.199
  16152.443  0.40493463   34110.199
  16153.826  0.39859964   33981.199
  16155.034  0.39293078   33980.199
  16155.727   0.3895031   33877.195
  16156.418  0.38547734   33932.176
  16157.108  0.38215636   34029.145
  16157.800  0.37718159   33914.105
  16158.493  0.37345104   33914.051
  16159.356  0.36839695   33885.984
  16160.047  0.36508379   33852.906
  16160.913  0.36127948   33785.816
  16161.777  0.35759318   33742.711
  16162.642  0.35500107   33827.598
  16163.508  0.35102616   33667.473
  16164.372  0.34873204   33754.332
  16165.237  0.34539969   33616.184
  16166.275  0.34292435    33658.02
  16167.140  0.34077886   33690.844
  16168.179  0.33843483   33824.656
  16169.217  0.33632122   33867.461
  16170.084  0.33471315    33699.25
  16171.123  0.33395834   33662.027
  16172.160  0.33420707   33648.789
  16173.373  0.33525025   33575.543
  16174.412  0.33667469   33677.285
  16175.452   0.3387442   33801.012
  16176.665  0.34192662    33903.73
  16177.705  0.34411872   33864.434
  16178.917  0.34731465   33969.129
  16180.132  0.35068705   34156.809
  16181.345  0.35338331   34474.477
  16182.559  0.35474374   34449.133
  16183.772  0.35646675   34641.777
  16185.160  0.35790831    34922.41
  16186.374  0.35810196   35094.031
  16187.762  0.35839752   35230.641
  16188.977  0.35831593   35265.238
  16190.365  0.35884478    35405.82
  16191.755   0.3594772   35471.395
  16193.143  0.36022319   35596.953
  16194.532  0.36108774     35867.5
  16195.922   0.3607334   35786.039
  16197.485  0.36130191   35892.563
  16198.874  0.36171769   35962.074
  16200.438  0.36257694   36093.574
  16202.004  0.36317354   36092.063
  16203.394  0.36359542   36216.539
  16204.958  0.36306878   36321.004
  16206.524  0.36210263   36383.453
  16208.090  0.36086001   36462.895
  16209.829  0.35922023    36722.32
  16211.396  0.35622425   36720.738
  16212.961  0.35307335   36824.141
  16214.703    0.350802   37109.531
  16216.444  0.34697464    37224.91
  16218.186  0.34329291   37375.281
  16219.927  0.33926876   37394.637
  16221.670  0.33581051   37439.977
  16223.413   0.3333742   37503.309
  16225.156  0.33176087   37719.629
  16226.900  0.33133952   37829.938
  16228.818  0.33098302    38005.23
  16230.563  0.33094775   38284.516
  16232.480   0.3303616   38301.785
  16234.401  0.33078337   38565.047
  16236.321  0.33120769   38657.293
  16238.242  0.33270791   38940.527
  16240.163  0.33308128    38934.75
  16242.084  0.33420949   39206.961
  16244.181  0.33513031    39291.16
  16246.104  0.33636877   39445.348
  16248.202  0.33793631    39517.52
  16250.300  0.33985785   39745.684
  16252.225  0.34153925   39784.836
  16254.323  0.34289343   40158.973
  16256.423   0.3425184   40185.102
  16258.698   0.3413128   40390.215
  16260.801  0.33892575   40590.316
  16262.902  0.33647025   40758.406
  16265.180  0.33425512   40911.484
  16267.282  0.33386668   41208.551
  16269.562  0.33383017   41349.605
  16271.841  0.33462777   41519.648
  16274.121   0.3353558    41615.68
  16276.400  0.33651739   41886.695
  16278.682  0.33706081   41976.703
  16280.965   0.3376643   42241.695
  16283.422  0.33723578    42419.68
  16285.705  0.33622324   42376.648
  16288.165  0.33524638   42933.605
  16290.450  0.33364341   43188.551
  16292.911  0.33075961   43115.488
  16295.373   0.3284545    43310.41
  16297.836  0.32645077   43395.316
  16300.300  0.32546533   43791.215
  16302.764  0.32425494   43901.102
  16305.404  0.32310314   44044.977
  16307.870  0.32199538   44391.836
  16310.514  0.32050623   44552.688
  16312.980  0.31947999   44751.523
  16315.624  0.31938448   44851.348
  16318.271  0.32004266    45314.16
  16320.918   0.3207426   45354.965
  16323.563  0.32273897   45708.754
  16326.212  0.32432284   45816.531
  16329.038  0.32595165   45990.293
  16331.687  0.32761348   46227.047
  16334.515  0.32828752   46340.789
  16337.165  0.32832701    46626.52
  16339.995  0.32771148   46959.234
  16342.827  0.32617452   47053.941
  16345.657   0.3246943   47290.633
  16348.490  0.32273245   47495.313
  16351.322  0.32100833    47770.98
  16354.333  0.31924715   47922.641
  16357.169  0.31782872   48142.285
  16360.007  0.31640787   48308.918
  16363.021  0.31514365   48445.535
  16366.036   0.3147769   48843.145
  16369.054  0.31360357   48784.742
  16372.071   0.3136866   49191.328
  16375.092  0.31414141   49354.898
  16378.111  0.31464205   49619.461
  16381.133  0.31621256   49998.008
  16384.156  0.31688588   50093.543
  16387.357  0.31681771   50307.066
  16390.383  0.31577148   50631.578
  16393.586  0.31406232   50775.082
  16396.791  0.31266457   50925.566
  16399.998  0.31162562   51117.043
  16403.207  0.31067868   51184.508
  16406.416  0.30913384   51479.961
  16409.627  0.30669474   51657.398
  16412.840  0.30622311   51723.828
  16416.230  0.30665587   52133.242
  16419.445   0.3074331   52215.648
  16422.840  0.30813425   52207.039
  16426.057  0.30876851   52588.418
  16429.455  0.30905524   52981.785
  16432.854  0.30837598   52982.141
  16436.254  0.30804925   53217.484
  16439.656  0.30698534   53233.816
  16443.236  0.30646586   53590.137
  16446.643  0.30586254   53937.445
  16450.049  0.30466191   53946.738
  16453.635  0.30328643   54220.023
  16457.223  0.30201869   54521.293
  16460.635  0.30130069   54708.551
  16464.227  0.30091921   55205.801
  16467.818  0.29994317   55247.035
  16471.412  0.29939232   55395.258
  16475.010  0.29890986   55792.469
  16478.787  0.29779535   55780.668
  16482.387  0.29667351   56007.855
  16485.988  0.29569722   56127.027
  16489.771  0.29550169   56381.191
  16493.557  0.29562225   56470.344
  16497.162  0.29598167    56953.48
  16500.949  0.29564006   56884.609
  16504.740   0.2953522   57244.723
  16508.533  0.29468295   57324.824
  16512.326  0.29385439   57659.914
  16516.301  0.29329996   57721.992
  16520.100  0.29265316   57800.059
  16523.898  0.29150993   58165.113
  16527.881  0.29147064   58405.156
  16531.865  0.29103986   58420.188
  16535.668  0.29070787   58311.207
  16539.656  0.29030293   59036.211
  16543.645  0.28952167   58708.207
  16547.639  0.28932799   58957.188
  16551.631   0.2883744   59293.156
  16555.809  0.28701633   59347.117
  16559.807  0.28611557   59577.063
  16563.986  0.28543927   59497.996
  16567.988  0.28472202   59740.918
  16572.176  0.28473103   59747.828
  16576.361  0.28408594   60059.727
  16580.371  0.28394321   60284.609
  16584.561  0.28376709   60564.484
  16588.756   0.2835798   60405.348
  16592.953  0.28288079   60677.195
  16597.334  0.28230377   60647.031
  16601.533  0.28124668   60881.859
  16605.736  0.27992969   61126.672
  16610.125   0.2788805   61273.473
  16614.514  0.27814329   61485.262
  16618.725  0.27730461   61598.039
  16623.119  0.27666671   61494.805
  16627.516  0.27599486   61758.559
  16631.916  0.27609159   61865.301
  16636.318  0.27609143   61937.027
  16640.725  0.27576346   62209.746
  16645.313  0.27561204   62369.449
  16649.723  0.27461304   62447.145
  16654.318  0.27398364   62635.824
  16658.732  0.27376546   62651.492
  16663.332  0.27331464   62864.148
  16667.936   0.2730312   62838.793
  16672.357  0.27139316   63233.426
  16676.965  0.27009851   62899.047
  16681.762    0.269374   63056.656
  16686.375  0.26856952   63554.254
  16690.990  0.26829016   63426.836
  16695.609   0.2673127    63362.41
  16700.416  0.26670399   63622.969
  16705.041  0.26631711    63718.52
  16709.852  0.26626504   63740.055
  16714.666  0.26586823   63996.578
  16719.299  0.26520309   63980.094
  16724.119  0.26446405   63983.594
  16728.941  0.26394399   64027.082
  16733.768  0.26330219   64256.555
  16738.596  0.26279416    64532.02
  16743.613  0.26163877   64275.473
  16748.449  0.26098841   64648.914
  16753.285  0.25963571    64618.34
  16758.313   0.2588288   64652.758
  16763.342  0.25834142    64547.16
  16768.188  0.25830675   64803.551
  16773.223  0.25773657    65182.93
  16778.262  0.25858523   64151.301
  16783.305  0.25601028   64967.656
  16788.348  0.25587671   64902.996
  16793.396  0.25481986   65182.328
  16798.635  0.25403316   65478.648
  16803.689  0.25400519   65037.957
  16808.746  0.25295665    65591.25
  16813.994   0.2529685   65050.535
  16819.059  0.25191895   65206.805
  16824.313  0.25147911   65342.066
  16829.570  0.25067759   65511.313
  16834.832  0.25011701   65630.547
  16840.096  0.24902564   65560.773
  16845.363  0.24808524   65614.984
  16850.635  0.24700812    65825.18
  16855.910  0.24644105   65715.367
  16861.377  0.24589424   65710.539
  16866.658  0.24475403   66076.703
  16872.131  0.24414632   65962.859
  16877.420  0.24387034   65884.992
  16882.900  0.24330501   66103.125
  16888.385  0.24217993   65946.234
  16893.684  0.24169012   65733.336
  16899.174  0.24080496    65993.43
  16904.670  0.23995634   66096.508
  16910.170  0.23956308   66112.578
  16915.861  0.23882911   66447.633
  16921.367  0.23900267   66423.672
  16926.877  0.23858066   66103.703
  16932.580  0.23808066   65905.719
  16938.098  0.23699719   66172.727
  16943.809  0.23628245   66150.719
  16949.525  0.23595402   65818.703
  16955.055  0.23486611   65931.672
  16960.777   0.2337867   66048.633
  16966.504  0.23375367   65625.578
  16972.234  0.23311496   65915.508
  16977.969  0.23210977    65976.43
  16983.709  0.23169567   66154.344
  16989.643  0.23244737   65497.242
  16995.389  0.23202945   65366.125
  17001.332  0.23019028       65758
