# XDI/1.0  SSRL EXAFS Data Collector 1.1 AD.RGN
# Column.1: energy eV
# Column.2: mutrans
# Column.3: i0
# Beamline.name: SSRL 4-3 (?)
# Element.edge: K
# Element.symbol: Sr
# Mono.d_spacing: 1.92009
# Mono.name: Si(220)
# Mono.notes: (?) unfocussed, detuned 50%, clockwise at E=16800eV
# Sample.formula: SrCO3
# Sample.name: strontianite
# Sample.prep: powder mixed with B2O3
# Sample.reference: none
# Sample.temperature: room temperature
# Scan.start_time: 1997-03-18 20:19:50
# ///
#    Note: mono d_spacing is nominal!
#--------------------------------------------
# energy     mutrans         i0
  15700.043 -0.0068455343   68087.602
  15709.991 -0.0069850194   67864.602
  15719.954 -0.0058675836   67749.602
  15729.931 -0.0066133239   67321.602
  15739.919 6.5313913e-05   65914.602
  15749.921 -0.010416259   66728.602
  15759.935 -0.010119709   66334.602
  15769.963 -0.010228842   66109.602
  15780.002 -0.010698371   65703.602
  15790.057 -0.011501633   65412.602
  15799.958 -0.011538757   65028.602
  15810.037 -0.0093963635   65005.602
  15819.965 -0.01070706   64535.602
  15830.071 -0.0079943505   64499.602
  15840.023 -0.010121876   63961.602
  15849.989 -0.0096296842   63733.602
  15859.968 -0.01270015   63194.602
  15869.959 -0.012560194   62795.602
  15879.964 -0.012916386   62437.602
  15889.980 -0.011065777   62252.602
  15900.011 -0.010064151   61957.602
  15910.055 -0.010730303   61799.602
  15919.941 -0.01080824   61443.602
  15930.011 -0.013180425   60952.602
  15939.925 -0.012265679   60747.602
  15950.020 -0.012355725   60382.602
  15959.959 -0.012410058   60116.602
  15970.079 -0.011374814   59852.602
  15980.045 -0.011178644   59485.602
  15990.021 -0.012624606   59088.602
  16000.012 -0.013394887   58709.602
  16010.014 -0.012750941   58343.602
  16020.030 -0.012707663   58152.602
  16030.059 -0.012283593   57826.602
  16039.929 -0.013363079   57363.602
  16049.982 -0.011931967   56958.602
  16060.049 -0.010848455   56630.602
  16069.959 -0.0093565871   56241.602
  16080.051 -0.0029426872   55886.602
  16081.248 -0.0028257208   55729.602
  16082.448 7.7157045e-05   55745.602
  16083.646 0.0011363215   55738.602
  16084.846 0.0032023368   55767.602
  16086.215 0.0052961057   55716.602
  16087.415 0.0075385386   55564.602
  16088.613 0.011175419   55636.602
  16089.813 0.014237879   55478.602
  16091.013 0.017251238   55328.602
  16092.214 0.023053712   55300.602
  16093.586 0.030227847   55189.602
  16094.785 0.039859988   55156.602
  16095.986 0.053807408   55135.602
  16097.187 0.071553614   54990.602
  16098.387  0.10596305   55044.602
  16099.588  0.15215876   54958.602
  16100.962  0.23269018   54832.602
  16102.162  0.32574732   54793.602
  16103.364   0.4272776   54835.602
  16104.565  0.55582412   54667.602
  16105.769  0.69095222   54610.602
  16106.970  0.85129811   54580.602
  16108.173  0.99250636   54594.602
  16109.547   1.1285796   54388.602
  16110.750   1.2105891   54379.602
  16111.952   1.2358525   54411.602
  16113.155   1.2041496   54310.602
  16114.359   1.1369637   54157.602
  16115.563     1.04825   54098.602
  16116.767  0.96995883   54060.602
  16118.143  0.88700986   54003.602
  16119.345  0.83118804   53925.602
  16120.551  0.79362619   53872.602
  16121.754  0.76756184   53783.602
  16122.960  0.75165213   53742.602
  16124.163  0.74344468   53757.602
  16125.369  0.73861552   53745.602
  16126.746  0.73468248   53607.602
  16127.951  0.73434578   53491.602
  16129.157  0.73820475   53543.602
  16130.362  0.74663833   53469.602
  16131.568  0.75691159   53339.602
  16132.774   0.7695767   53056.602
  16133.980  0.78174699   53061.602
  16135.188  0.79487474   52985.602
  16136.568  0.80957692   52853.602
  16137.773  0.82322393   52905.602
  16138.981  0.83734489   52962.602
  16140.188  0.85263411   53093.602
  16141.396  0.86770067   52975.602
  16142.603  0.88238996   52959.602
  16143.812  0.89493706   52825.602
  16145.020  0.90442685   52800.602
  16146.400  0.91097548   52754.602
  16147.607  0.91167635   52572.602
  16148.817  0.91135988   52528.602
  16150.024   0.9087952    105108.2
  16151.062  0.90359958   104741.19
  16152.271  0.89805961   104771.16
  16153.481  0.89077298   104673.09
  16154.517  0.88333395   104521.01
  16155.727  0.87385126   104367.91
  16156.937  0.86218657   104158.77
  16158.146  0.85175297   104124.63
  16159.528  0.83979864   103956.45
  16160.740  0.82977502   103776.24
  16162.122  0.81966209   103589.02
  16163.334  0.81301635   103618.77
  16164.718  0.80464365    103292.5
  16166.102  0.79768407    103223.2
  16167.486  0.79132298   103118.88
  16168.871  0.78606423   103004.54
  16170.257   0.7827544   102984.18
  16171.642  0.78085875   102826.79
  16173.200  0.78127868   102763.38
  16174.586  0.78368509   102833.94
  16176.146    0.787841   102842.48
  16177.705  0.79272811   102771.99
  16179.265  0.79892591   103077.48
  16180.825  0.80462225   103435.95
  16182.386  0.80885057    103712.4
  16183.946  0.81211527   104109.82
  16185.680  0.81469526   104665.21
  16187.242  0.81657908   105219.59
  16188.977  0.81703875   105606.94
  16190.539  0.81798617   105910.27
  16192.275  0.81747436   106131.57
  16194.011  0.81829434   106337.85
  16195.748  0.81896826    106481.1
  16197.485    0.820148   106569.34
  16199.396  0.82183201   106754.55
  16201.134  0.82269045   106851.73
  16203.046  0.82330158   106999.89
  16204.785  0.82269904   107116.03
  16206.698  0.82095555   107239.14
  16208.612  0.81805788   107473.23
  16210.525  0.81387462    107722.3
  16212.439  0.80910682   107832.34
  16214.355  0.80424459   108116.36
  16216.271   0.7987531   108382.36
  16218.360  0.79282449   108665.33
  16220.276  0.78774867   108926.28
  16222.367  0.78328105    109272.2
  16224.459  0.78013084   109515.11
  16226.551  0.77793803   109694.98
  16228.644  0.77707307   110036.84
  16230.738   0.7763149   110326.67
  16232.832  0.77597587   110551.48
  16234.925  0.77611218   110911.26
  16237.194  0.77646276   111134.02
  16239.290  0.77701214   111413.76
  16241.561  0.77770717   111642.47
  16243.832  0.77898545   111943.16
  16246.104  0.78002849   112324.82
  16248.377  0.78240391   112835.46
  16250.650  0.78435723   113175.08
  16252.925  0.78596124   113541.67
  16255.199  0.78632135   113866.24
  16257.649  0.78538924   114262.79
  16259.925  0.78360592   114670.31
  16262.377  0.78190002   115025.81
  16264.830  0.78029239   115430.29
  16267.282  0.78038004   115839.74
  16269.737  0.78195413   116164.17
  16272.192  0.78314525   116606.58
  16274.646  0.78430188   116990.96
  16277.279  0.78483686   117386.32
  16279.736  0.78438604   117880.66
  16282.369  0.78216381   118282.96
  16284.828   0.7807578   118607.25
  16287.463  0.77847532   119063.52
  16290.099  0.77582766   119566.76
  16292.735  0.77326806   119920.97
  16295.373  0.77104172   120347.16
  16298.013  0.76902008   120875.34
  16300.827  0.76727089   121302.48
  16303.468   0.7655903    121701.6
  16306.286  0.76393119    122088.7
  16309.104  0.76187003   122664.77
  16311.748  0.76068089   123137.82
  16314.567  0.76008512   123605.85
  16317.388  0.76032662   124003.85
  16320.211  0.76075457   124542.84
  16323.212  0.76172235   124939.79
  16326.035  0.76271382   125406.73
  16328.861  0.76409565   125983.63
  16331.863  0.76484832   126602.52
  16334.867  0.76489821   126881.38
  16337.696  0.76490628   127492.22
  16340.703    0.763873   128034.03
  16343.710  0.76249978   128620.83
  16346.719  0.76037392   129110.59
  16349.905   0.7583882   129656.34
  16352.918  0.75681047   130084.05
  16355.929  0.75487995   130610.75
  16359.119  0.75333446   131255.42
  16362.312  0.75222537   131760.08
  16365.326  0.75092375    132216.7
  16368.521  0.74996245    132831.3
  16371.717  0.74955407   133437.87
  16374.914  0.74913945   133977.44
  16378.111  0.74860387   134440.97
  16381.488  0.74776244   135010.47
  16384.689  0.74680706   135497.95
  16388.068  0.74543144   136089.42
  16391.271  0.74365143   136627.86
  16394.656  0.74215444   137152.27
  16398.039  0.74086491   137711.66
  16401.424   0.7396982   138259.03
  16404.813  0.73838192   138903.36
  16408.199   0.7375523   139316.69
  16411.590  0.73669923   139892.98
  16415.160  0.73689286   140546.25
  16418.553  0.73708588    141034.5
  16422.127   0.7366681   141584.72
  16425.521  0.73684703   142001.92
  16429.098  0.73654503   142643.09
  16432.676  0.73575153   143234.25
  16436.254  0.73490926   143844.37
  16439.834  0.73361133   144337.48
  16443.416   0.7326751   144654.58
  16447.180  0.73133376   145271.62
  16450.766  0.72998406   145864.67
  16454.354  0.72878628   146353.67
  16458.121  0.72768299   146931.66
  16461.891  0.72652649   147450.62
  16465.662  0.72546445   148091.56
  16469.438  0.72467659   148701.48
  16473.211  0.72371085   149339.37
  16476.988  0.72273614   149830.25
  16480.768  0.72142493   150224.09
  16484.549  0.72035457   150841.92
  16488.510   0.7192375   151592.72
  16492.295  0.71858362   151987.48
  16496.260  0.71777512   152573.25
  16500.229  0.71700048   153031.97
  16504.199  0.71591302   153525.67
  16508.172  0.71485659   154188.36
  16512.145   0.7135783   154666.02
  16516.121  0.71273874   155130.64
  16520.100  0.71167168   155196.25
  16524.080  0.71062955   156046.84
  16528.242  0.70944145   156370.41
  16532.227  0.70866941   157137.94
  16536.393  0.70769668   157667.45
  16540.563  0.70665198   158455.95
  16544.734  0.70561153   158775.42
  16548.906  0.70420497   159138.86
  16553.084  0.70312816   159937.28
  16557.262  0.70190111   160148.69
  16561.441  0.70071448   160809.06
  16565.807  0.69959776   161102.41
  16569.990   0.6985905   161458.73
  16574.357  0.69768743   162070.03
  16578.549  0.69668903   162614.31
  16582.922   0.6958256   163287.56
  16587.297   0.6947277    163782.8
  16591.674  0.69453829   164472.02
  16596.055  0.69206977   164499.19
  16600.438  0.69092622   164709.36
  16604.822  0.69013753   164907.48
  16609.393  0.68876535   165506.61
  16613.783   0.6876194   166065.69
  16618.357  0.68617589   166692.77
  16622.754  0.68500108    167211.8
  16627.332  0.68402775   167681.83
  16631.916   0.6829627   168083.81
  16636.502  0.68169336    168400.8
  16641.090  0.68059384   168709.73
  16645.682  0.67967214   169349.66
  16650.273  0.67853507   169543.56
  16655.053  0.67703255   169875.44
  16659.652  0.67587034    170291.3
  16664.254  0.67484845   170659.12
  16669.043   0.6732825   170532.94
  16673.832  0.67195372   171163.72
  16678.625  0.67088298   172071.47
  16683.420   0.6696438    172303.2
  16688.221  0.66838855   172782.92
  16693.023  0.66716642   173426.61
  16697.828  0.66594042   173285.28
  16702.635  0.66498533   173958.92
  16707.445  0.66387033   174218.53
  16712.445  0.66266151   174389.12
  16717.260  0.66141298    174747.7
  16722.264  0.66012463   175003.25
  16727.271  0.65908069   175093.77
  16732.281  0.65725953   175497.27
  16737.295  0.65649483   175704.75
  16742.313  0.65520179    176067.2
  16747.332  0.65377559   176410.62
  16752.355  0.65240504   176580.03
  16757.381  0.65108726   176815.41
  16762.596  0.64981765   177002.77
  16767.629  0.64865945   177163.11
  16772.852  0.64732621   177383.41
  16777.889  0.64595413    176832.7
  16783.117  0.64487426   177216.97
  16788.348  0.64357661    178530.2
  16793.584  0.64242269   178329.42
  16798.822  0.64113198   178681.61
  16804.063  0.63956922   178856.78
  16809.309  0.63852382   179009.92
  16814.744  0.63723364   179215.05
  16819.996  0.63628067   179559.14
  16825.438   0.6348489   179516.22
  16830.697  0.63349022   179857.27
  16836.146  0.63213844    179974.3
  16841.600   0.6311214    179660.3
  16847.059  0.62936894   180012.28
  16852.330  0.62806002   180311.23
  16857.982  0.62655734   180078.17
  16863.451   0.6251312   180399.08
  16868.922  0.62388483   180515.97
  16874.396  0.62266291   180496.83
  16880.064  0.62149843   180219.66
  16885.547   0.6201084   180941.47
  16891.223  0.61851232   180825.27
  16896.711   0.6173958   180599.03
  16902.396  0.61632722   181018.78
  16908.082  0.61489903    180863.5
  16913.773  0.61343204   180954.19
  16919.469  0.61215579   181301.86
  16925.166   0.6106598   180943.52
  16930.869  0.60931933   180656.14
  16936.576  0.60750328   181285.73
  16942.287  0.60643992   180824.31
  16948.191  0.60500643   181283.87
  16953.910   0.6034749   181206.41
  16959.822  0.60238369   181034.91
  16965.740  0.60122817   180981.39
  16971.471  0.59967725   180746.86
  16977.396  0.59845443    181281.3
  16983.326  0.59729084    180583.7
  16989.260  0.59590173   180794.09
  16995.197  0.59428814   180129.45
  17001.332   0.5930301    180407.8
