# XDI/1.0 EXAFS Data Collector 1.1 AD.RGN
# Column.1: energy eV
# Column.2: mutrans
# Column.3: i0
# Beamline.name: SSRL 4-3 (?)
# Detector.I0: N2 15cm
# Detector.I1: Ar 30cm
# Element.edge: K
# Element.symbol: Sr
# Mono.d_spacing: 1.92009
# Mono.name: Si(220)
# Mono.notes: (?) unfocussed, detuned 50%, clockwise at E=16800eV
# Sample.formula: SrCO3
# Sample.name: strontianite
# Sample.prep: powder mixed with B2O3 (1:10)
# Sample.reference: none
# Sample.temperature: 12K
# Scan.start_time: 1997-03-17 12:43:45
# ///
#    Note: mono d_spacing is nominal!
#-------------
#   energy   mutrans      i0
  15700.043 -0.14735518   37319.199
  15709.991 -0.14916467   37087.199
  15719.954 -0.15113591   36836.199
  15729.931 -0.15267341   36600.199
  15739.919 -0.15360503   35668.199
  15749.921 -0.15553414   36302.199
  15759.935 -0.15804965   36122.199
  15769.963 -0.15968465   35855.199
  15780.002 -0.16116215   35608.199
  15790.057 -0.16281269   35466.199
  15799.958 -0.16461834   35268.199
  15810.037 -0.16629111   35038.199
  15819.965  -0.1675485   34780.199
  15830.071 -0.16963571   34656.199
  15840.023  -0.1713578   34486.199
  15849.989 -0.17241802   34234.199
  15859.968  -0.1737261   33985.199
  15869.959 -0.17550113   33793.199
  15879.964  -0.1765138   33535.199
  15889.980 -0.17822588   33404.199
  15900.011 -0.17995974   33149.199
  15910.055 -0.18097945   32955.199
  15919.941 -0.18243763   32737.199
  15930.011  -0.1839373   32549.199
  15939.925 -0.18563229   32356.199
  15950.020 -0.18672597   32124.199
  15959.959 -0.18855538   31951.199
  15970.079 -0.18960025   31662.199
  15980.045  -0.1911594   31388.199
  15990.021 -0.19257379   31276.199
  16000.012 -0.19340459   31058.199
  16010.014 -0.19491269   30882.199
  16020.030 -0.19621289   30666.199
  16030.059 -0.19725577   30437.199
  16039.929 -0.19761158   30221.199
  16049.982  -0.1987634   30028.199
  16060.049 -0.19938503   29816.199
  16069.959 -0.19818066   29587.199
  16080.051 -0.19580619   29363.199
  16089.984 -0.18545226   29117.199
  16099.931 -0.053952116   28899.199
  16110.063   0.4496115   28722.199
  16120.035  0.20746238   28507.199
  16121.238  0.19964744   28478.199
  16122.443  0.19375749   28420.199
  16123.819  0.18901594   28381.199
  16125.024   0.1871395   28329.199
  16126.229  0.18594091   28277.199
  16127.435   0.1853972   28252.199
  16128.813   0.1874637   28185.199
  16130.019  0.19255135   28136.199
  16131.225  0.19810364   28072.199
  16132.431  0.20502077   27917.199
  16133.809  0.21289295   27884.199
  16135.016  0.21937123   27861.199
  16136.221  0.22669765   27820.199
  16137.429  0.23366214   27830.199
  16138.808  0.24307193   27796.199
  16140.016   0.2528461   27778.199
  16141.223  0.26196974   27774.199
  16142.431  0.27110267   27739.199
  16143.812  0.27884653   27689.199
  16145.020  0.28369802   27655.199
  16146.228   0.2870271   27574.199
  16147.436  0.28781277   27549.199
  16148.817  0.28726748   27490.199
  16150.024  0.28416534   27458.199
  16151.234  0.28083498   27421.199
  16152.443  0.27619791   27364.199
  16153.826  0.27009229   27297.199
  16155.034  0.26337505   27260.199
  16155.727  0.26042911   27233.193
  16156.418   0.2559556   27207.176
  16157.108  0.25199878   27187.146
  16157.800  0.24786391   27126.104
  16158.493  0.24335486   27060.049
  16159.356  0.23829349   27053.982
  16160.047  0.23496122   27016.904
  16160.913  0.23062328   26977.814
  16161.777  0.22693471   26939.713
  16162.642  0.22366782   26926.598
  16163.508  0.22040546   26878.471
  16164.372  0.21749142   26858.332
  16165.237  0.21450606   26831.182
  16166.275  0.21092293    26799.02
  16167.140   0.2084183   26812.844
  16168.179  0.20611406   26809.658
  16169.217  0.20380098   26786.459
  16170.084  0.20256904   26787.248
  16171.123  0.20129415   26766.025
  16172.160  0.20081255   26808.791
  16173.373  0.20210749   26813.543
  16174.412  0.20306962   26798.285
  16175.452   0.2049352   26801.014
  16176.665  0.20833881    26838.73
  16177.705  0.21055976   26896.436
  16178.917  0.21308557   26945.129
  16180.132  0.21595746   26954.809
  16181.345   0.2189205   27031.477
  16182.559   0.2204885   27129.135
  16183.772  0.22183868   27254.779
  16185.160   0.2228687   27399.412
  16186.374  0.22376283   27528.031
  16187.762  0.22430585   27664.641
  16188.977  0.22443084   27787.236
  16190.365  0.22506031    27873.82
  16191.755  0.22523628   27995.393
  16193.143  0.22596575   28099.953
  16194.532  0.22612564   28168.502
  16195.922  0.22639889   28254.037
  16197.485  0.22665432   28262.563
  16198.874  0.22734377   28341.074
  16200.438  0.22818018   28422.574
  16202.004  0.22804209   28460.063
  16203.394  0.22858185   28554.539
  16204.958  0.22833367   28624.002
  16206.524  0.22789448   28695.453
  16208.090  0.22600018   28783.895
  16209.829  0.22343754   28826.322
  16211.396  0.22132824   28973.736
  16212.961  0.21900291   29099.141
  16214.703  0.21484432   29166.533
  16216.444  0.21084435   29302.912
  16218.186   0.2068138   29332.279
  16219.927  0.20278041   29430.635
  16221.670  0.19944025   29524.979
  16223.413  0.19718343   29655.311
  16225.156  0.19546747   29742.629
  16226.900  0.19419363   29860.936
  16228.818  0.19370047   29945.232
  16230.563  0.19300182   30030.516
  16232.480  0.19315478   30149.785
  16234.401  0.19343368   30234.045
  16236.321  0.19394049   30365.293
  16238.242  0.19470353   30510.527
  16240.163  0.19549722    30616.75
  16242.084  0.19617264   30755.961
  16244.181  0.19725878    30864.16
  16246.104  0.19865483   30983.346
  16248.202  0.20003555   31103.521
  16250.300  0.20199919   31228.684
  16252.225  0.20391318   31380.834
  16254.323  0.20466335   31497.973
  16256.423  0.20436681     31625.1
  16258.698  0.20229658   31714.215
  16260.801  0.20003778   31860.316
  16262.902  0.19741208   32019.408
  16265.180  0.19551617   32153.486
  16267.282  0.19412436   32265.553
  16269.562  0.19448369   32437.605
  16271.841  0.19516613   32554.648
  16274.121  0.19614255    32744.68
  16276.400  0.19640866   32872.695
  16278.682  0.19708177   33022.703
  16280.965  0.19770351   33179.695
  16283.422  0.19721691    33270.68
  16285.705  0.19631707   33397.648
  16288.165  0.19487701   33632.605
  16290.450  0.19237008   33738.551
  16292.911  0.18992496   33907.488
  16295.373  0.18751411    34052.41
  16297.836  0.18509009   34180.316
  16300.300   0.1848679   34390.215
  16302.764  0.18295394   34539.102
  16305.404  0.18078149   34627.977
  16307.870  0.17996638   34844.836
  16310.514  0.17842635   35034.688
  16312.980  0.17786284   35198.523
  16315.624  0.17705002   35310.348
  16318.271  0.17724921    35466.16
  16320.918  0.17785117   35633.965
  16323.563  0.17913811   35797.754
  16326.212  0.18021966   35936.531
  16329.038  0.18240276   36067.293
  16331.687  0.18469756   36277.047
  16334.515  0.18466681   36402.789
  16337.165  0.18422844    36572.52
  16339.995  0.18329227   36780.234
  16342.827  0.18181571   36921.941
  16345.657  0.18011227   37090.633
  16348.490  0.17769822   37239.313
  16351.322  0.17605194    37410.98
  16354.333  0.17494198   37611.641
  16357.169  0.17271094   37762.285
  16360.007  0.17093028   37946.918
  16363.021  0.16926396   38041.535
  16366.036   0.1679236   38161.145
  16369.054  0.16716573   38348.742
  16372.071  0.16738819   38525.328
  16375.092  0.16755019   38707.898
  16378.111  0.16835984   38946.461
  16381.133  0.16856454   39093.008
  16384.156  0.16892498   39257.543
  16387.357  0.16760915   39401.066
  16390.383  0.16597283   39571.578
  16393.586    0.163926   39758.082
  16396.791  0.16304221   39966.566
  16399.998  0.16121445   40112.043
  16403.207  0.15993773   40248.508
  16406.416    0.158629   40469.961
  16409.627    0.158419   40680.398
  16412.840  0.15764541   40765.828
  16416.230   0.1578638   40971.242
  16419.445   0.1582617   41112.648
  16422.840  0.15825914   41220.039
  16426.057  0.15920211   41515.418
  16429.455    0.158875   41666.785
  16432.854   0.1582617   41827.141
  16436.254   0.1575382   41988.484
  16439.656   0.1566204   42192.816
  16443.236  0.15538354   42348.137
  16446.643  0.15427922   42479.445
  16450.049   0.1531189   42704.738
  16453.635  0.15161287   42804.023
  16457.223  0.15019013   42991.293
  16460.635  0.14844313   43052.551
  16464.227  0.14855042   43340.801
  16467.818  0.14776371   43495.035
  16471.412  0.14673044   43587.258
  16475.010  0.14558276   43683.469
  16478.787  0.14474473   43909.668
  16482.387  0.14403063   44095.855
  16485.988   0.1430245   44263.027
  16489.771  0.14203578   44420.191
  16493.557  0.14260684   44607.344
  16497.162  0.14219957    44672.48
  16500.949  0.14249397   44909.609
  16504.740  0.14171332   44987.723
  16508.533  0.14005116   45116.824
  16512.326  0.13890838   45199.914
  16516.301   0.1384234   45408.992
  16520.100  0.13805608   45560.059
  16523.898  0.13685131   45707.113
  16527.881  0.13666411   45914.156
  16531.865  0.13599415   46125.188
  16535.668  0.13507248   46221.207
  16539.656  0.13360962   46294.211
  16543.645  0.13419646   46543.207
  16547.639  0.13282999   46637.188
  16551.631  0.13175626   46766.156
  16555.809  0.13014501   46874.117
  16559.807  0.12897325   47009.063
  16563.986  0.12790348   47094.996
  16567.988  0.12786544   47333.918
  16572.176  0.12712457   47400.828
  16576.361  0.12576318   47527.727
  16580.371  0.12516899   47791.609
  16584.561  0.12528127   47990.484
  16588.756  0.12571382   48209.348
  16592.953  0.12432198   48221.195
  16597.334  0.12342843   48387.031
  16601.533  0.12197709   48537.859
  16605.736  0.12069044   48577.672
  16610.125  0.11909458   48684.473
  16614.514  0.11822511   48871.262
  16618.725  0.11701018   48944.039
  16623.119  0.11604232   49084.805
  16627.516  0.11571596   49199.559
  16631.916   0.1149483   49300.301
  16636.318  0.11465865   49439.027
  16640.725    0.113985   49522.746
  16645.313  0.11355988   49691.449
  16649.723   0.1124488   49735.145
  16654.318  0.11273241   49957.824
  16658.732  0.11146449   50052.492
  16663.332  0.11094504   50106.148
  16667.936  0.10965367   49993.793
  16672.357  0.10829654   50249.426
  16676.965  0.10713364   50445.047
  16681.762  0.10637384   50562.656
  16686.375  0.10545399   50685.254
  16690.990  0.10400703   50659.836
  16695.609  0.10296611    50823.41
  16700.416  0.10208981   50922.969
  16705.041  0.10128176    50950.52
  16709.852  0.10140032   51096.055
  16714.666  0.10096163   51093.578
  16719.299  0.10030847   51237.094
  16724.119 0.099172678   51281.594
  16728.941 0.098926347   51345.082
  16733.768 0.097897693   51349.555
  16738.596 0.096919033    51427.02
  16743.613 0.096258606   51649.473
  16748.449 0.094536825   51609.914
  16753.285 0.093899936    51805.34
  16758.313 0.092788995   51884.758
  16763.342 0.092602012    51856.16
  16768.188 0.092017245   51984.551
  16773.223 0.091098335    51883.93
  16778.262 0.090908645   51661.301
  16783.305 0.088468491   51955.656
  16788.348 0.088279156   52093.996
  16793.396 0.087645778   52188.328
  16798.635 0.086516175   52245.648
  16803.689 0.086070708   52379.957
  16808.746 0.085208185    52321.25
  16813.994 0.084056793   52322.535
  16819.059 0.082853638   52305.805
  16824.313 0.081818068   52416.066
  16829.570 0.081423671   52452.313
  16834.832  0.08097037   52641.547
  16840.096 0.080668372    52763.77
  16845.363 0.079707078    52745.98
  16850.635 0.078630702    52657.18
  16855.910 0.078540623   52832.367
  16861.377 0.077938233   52769.543
  16866.658 0.076895697   52820.707
  16872.131 0.076214504   52850.855
  16877.420 0.075045944   52852.996
  16882.900 0.073570755   52716.121
  16888.385 0.072523347   52748.238
  16893.684 0.071984027    52768.34
  16899.174 0.071371964    52739.43
  16904.670 0.070719873   52768.508
  16910.170 0.069749869   52689.574
  16915.861 0.069159286   52734.629
  16921.367 0.068676699   52700.672
  16926.877 0.068164361   52673.703
  16932.580 0.067229931   52627.719
  16938.098 0.066049632   52551.727
  16943.809 0.065392184   52494.719
  16949.525 0.064605563   52570.703
  16955.055 0.063668811   52493.672
  16960.777 0.063224332   52558.633
  16966.504 0.062029574   52393.578
  16972.234 0.061233615   52432.512
  16977.969 0.060987302   52352.434
  16983.709 0.060137204   52181.344
  16989.643 0.059836382   52197.242
  16995.389 0.058834142   52380.125
  17001.332 0.057938039       52157
