# XDI/1.0 EXAFS Data Collector 1.1 AD.RGN
# Column.1: energy eV
# Column.2: mutrans
# Column.2: murefer
# Column.3: i0
# Beamline.name: SSRL 4-3
# Detector.I0: N2 15cm
# Detector.I1: N2+Ar 30cm
# Detector.I2: Ar
# Element.edge: K
# Element.symbol: Sr
# Mono.d_spacing: 1.920128
# Mono.name: Si(220)
# Mono.notes: (?) unfocussed, detuned 50%, clockwise at E=17000eV
# Sample.formula: SrO
# Sample.name: strontium oxide
# Sample.prep: powder
# Sample.reference: SrCO3
# Sample.temperature: 10K
# Scan.start_time: 1995-06-16 02:32:00
# ///
#    Note: mono d_spacing is nominal!
#-------------
#   energy   mutrans        murefer      i0
  15699.933  0.99880071  -1.1206328   69966.703
  15710.044   0.9972398  -1.1220793   69537.703
  15719.844  0.99602218  -1.1234857   69206.703
  15729.982  0.99442522  -1.1251042   68782.703
  15740.136  0.99274151   -1.126621   68445.703
  15749.973  0.99112752  -1.1283162   68014.703
  15760.152  0.99108805  -1.1298114   66772.703
  15770.016  0.98477263  -1.1311916   67377.703
  15779.891  0.98646705  -1.1326559   67148.703
  15790.109  0.98476935  -1.1344155   66670.703
  15800.011  0.98337837  -1.1357319   66318.703
  15809.925  0.98178699  -1.1374248   65991.703
  15819.854  0.98030382  -1.1387863   65632.703
  15830.124   0.9788923  -1.1404653   65244.699
  15840.076   0.9774199  -1.1419338   64954.699
  15850.042   0.9760656  -1.1435325   64606.699
  15860.021  0.97455219  -1.1450046   64238.699
  15870.012  0.97320696  -1.1465489   63887.699
  15880.018  0.97172726  -1.1479757   63523.699
  15890.033  0.97033476  -1.1495499   63176.699
  15900.063  0.96891422   -1.151072   62807.699
  15910.108  0.96755819  -1.1526143   62464.699
  15920.164  0.96613967  -1.1541122   62181.699
  15929.896  0.96476194  -1.1555665   61749.699
  15939.978  0.96336741  -1.1571466   61414.699
  15950.073  0.96197411   -1.158527   61004.699
  15959.844  0.96010986  -1.1601133   60590.699
  15969.964  0.96022886  -1.1616738   60255.699
  15980.097  0.95809071  -1.1631245   60009.699
  15989.906   0.9567563  -1.1646676   59627.699
  16000.064  0.95584155   -1.166161   59328.699
  16009.897  0.95422872  -1.1676126   58913.699
  16020.082  0.95286688  -1.1691117   58615.699
  16029.942  0.95246879  -1.1705951   58221.699
  16040.152  0.95099267  -1.1721276   57897.699
  16050.036  0.94991686  -1.1735889   57540.699
  16059.933  0.94910417   -1.175089   57222.699
  16069.841  0.94859462  -1.1766103   56883.699
  16080.104   0.9484318  -1.1779902   56471.699
  16090.039  0.94890733  -1.1794469   56175.699
  16099.984  0.95075302   -1.181006   55813.699
  16109.943   0.9551141  -1.1824296   55402.699
  16119.917  0.96735841  -1.1838694   54969.699
  16121.293  0.96996392  -1.1840975   55028.699
  16122.670  0.97317127  -1.1842014   55046.699
  16123.702  0.97602568  -1.1843139   54930.699
  16125.079  0.98122004  -1.1844996   55032.699
  16126.112  0.98592022  -1.1844959   54975.699
  16127.490  0.99430652  -1.1849681   54792.699
  16128.867   1.0057109   -1.184977   54778.699
  16129.901   1.0169992  -1.1850473   54822.699
  16131.278    1.041061  -1.1851508   54792.699
  16132.657   1.0818346  -1.1851649   54724.699
  16133.690   1.1287911  -1.1854928   54665.699
  16135.069   1.2218981  -1.1851059   54695.699
  16136.104   1.3051967  -1.1851252   54548.699
  16137.483   1.4252262  -1.1844502   54601.699
  16138.861   1.5280086  -1.1840678   54543.699
  16139.897   1.5898982  -1.1838668   54495.699
  16141.276   1.6779784  -1.1835187   54490.699
  16142.657   1.7888869  -1.1833474   54402.699
  16143.692   1.8794162  -1.1827744   54435.699
  16145.073   1.9975546    -1.18172   54303.699
  16146.108   2.0501398   -1.181371   54275.699
  16147.490   2.0545538  -1.1813606   54281.699
  16148.871   2.0041276  -1.1821157   54164.699
  16149.907   1.9569367  -1.1823851   54194.699
  16151.289   1.8995582  -1.1832547   54079.699
  16152.670   1.8594854  -1.1840921   53990.699
  16153.707   1.8365697  -1.1843146   54003.699
  16155.090   1.8083013  -1.1844822    108071.4
  16155.779   1.7968877  -1.1846552   107942.36
  16156.473   1.7859058  -1.1849264   107896.25
  16157.162   1.7754198  -1.1850374   107791.05
  16157.854   1.7656812  -1.1852488   107820.79
  16158.547    1.757274  -1.1852957   107832.44
  16159.237   1.7491893  -1.1854779   107888.02
  16160.274   1.7372895  -1.1855557   107825.52
  16160.968   1.7296794  -1.1857041   107873.95
  16161.659   1.7211326  -1.1860553   107920.29
  16162.695   1.7070992    -1.18634   108028.56
  16163.389    1.698824  -1.1862982   107998.76
  16164.426   1.6886417  -1.1865216   108107.87
  16165.465   1.6828802  -1.1867637   108246.91
  16166.157   1.6815589  -1.1866541   108303.87
  16167.195   1.6834267  -1.1868178   108221.77
  16168.234   1.6882489  -1.1869073   108128.58
  16169.271   1.6943719  -1.1870078   107927.31
  16170.311    1.700914  -1.1872303   107988.97
  16171.349   1.7081743  -1.1872451   108256.55
  16172.388    1.716434  -1.1871926   108380.05
  16173.428    1.725641  -1.1874545   109027.48
  16174.466   1.7372878  -1.1876417   109558.83
  16175.506   1.7505669  -1.1876361    109864.1
  16176.545   1.7650031  -1.1876422    110022.3
  16177.932   1.7851561  -1.1877293   110137.41
  16178.971   1.7992291  -1.1877382   110516.45
  16180.012   1.8127025  -1.1878801   110823.42
  16181.399   1.8281967  -1.1879466   110938.31
  16182.440   1.8365073  -1.1879085   111182.12
  16183.826   1.8436477  -1.1883372   111474.86
  16185.214   1.8434142  -1.1884074   111797.52
  16186.254   1.8384468  -1.1886073    112137.1
  16187.644   1.8261083  -1.1890076   112544.61
  16189.030   1.8113152   -1.189283   112905.03
  16190.419   1.7981991    -1.18973   113124.38
  16191.809   1.7887323  -1.1897622   113445.66
  16193.197   1.7830148  -1.1899289   113713.86
  16194.587   1.7799917  -1.1900063   114068.98
  16195.976   1.7775324  -1.1903951   114491.02
  16197.366   1.7743788  -1.1906789   114841.99
  16198.755    1.770121  -1.1907622   115302.88
  16200.493   1.7628488  -1.1912607    115589.7
  16201.884   1.7556442  -1.1913916   116047.44
  16203.274   1.7471433  -1.1916267    116479.1
  16205.013   1.7363022  -1.1919694   116882.68
  16206.405   1.7293376  -1.1922659   117330.19
  16208.145   1.7228748  -1.1924926   117740.62
  16209.884   1.7197308  -1.1928008   118309.98
  16211.276   1.7192527  -1.1929199   118611.25
  16213.016   1.7205523  -1.1929416   119028.45
  16214.757   1.7223788  -1.1933534   119503.58
  16216.499   1.7230753  -1.1935081   119922.62
  16218.240   1.7228981  -1.1937437   120449.59
  16219.981   1.7233708  -1.1938756   121043.48
  16221.725   1.7260977  -1.1942405    121378.3
  16223.468   1.7311411  -1.1945241   121883.05
  16225.210   1.7381683  -1.1948641   122410.71
  16226.954   1.7456557  -1.1950277    122841.3
  16228.698   1.7524155   -1.195138    123371.8
  16230.792   1.7575886  -1.1954876   123846.23
  16232.535   1.7577696  -1.1955962   124143.59
  16234.281   1.7548885  -1.1959256   124389.87
  16236.376   1.7503578  -1.1963133   124330.08
  16238.122   1.7479898  -1.1965645    124755.2
  16240.217   1.7491919  -1.1967631   125044.25
  16242.313   1.7538726  -1.1969302   125666.22
  16244.061   1.7576315  -1.1972435   126447.12
  16246.159    1.759467  -1.1974695   127515.94
  16248.257   1.7573748  -1.1977315   128831.68
  16250.354   1.7515353  -1.1980731   130017.34
  16252.454   1.7433063  -1.1986162   131162.94
  16254.553   1.7348641  -1.1989165   132065.44
  16256.653    1.727292   -1.199263   132878.87
  16258.753   1.7207629  -1.1994879   133532.23
  16260.855   1.7153865  -1.1997927   134053.52
  16262.957   1.7115995  -1.2002494   134579.72
  16265.059   1.7095903  -1.2005403   134980.86
  16267.162   1.7087404  -1.2006494   135497.91
  16269.616   1.7094371  -1.2010793   135947.87
  16271.719   1.7109768  -1.2014403   136540.78
  16274.174   1.7123866    -1.20169   137255.59
  16276.280   1.7129761  -1.2019889   138180.34
  16278.736   1.7132346   -1.202337   139326.02
  16280.844   1.7136008  -1.2025257   140320.59
  16283.301   1.7147741  -1.2029172   141274.11
  16285.760   1.7165142  -1.2033448   142187.55
  16288.220   1.7184079  -1.2037035   142868.91
  16290.328   1.7193447   -1.203953    143621.2
  16292.790   1.7185073  -1.2042905   144475.41
  16295.252   1.7160273  -1.2047032   145606.53
  16297.715   1.7150805  -1.2050314   146772.59
  16300.179   1.7174079  -1.2053547   147301.56
  16302.994    1.722348  -1.2057783   148123.47
  16305.459   1.7241735  -1.2060751   149002.28
  16307.925   1.7219607  -1.2063186   149783.03
  16310.392   1.7174657  -1.2066248    150544.7
  16313.211   1.7113448  -1.2070164    151338.3
  16315.680    1.706125  -1.2073269   152170.81
  16318.148   1.7027048  -1.2078097   153035.25
  16320.972   1.7020405  -1.2080246   153866.61
  16323.442   1.7048123   -1.208413   154810.91
  16326.268   1.7100406  -1.2087468   155589.11
  16329.092   1.7145842  -1.2091929   156558.23
  16331.564   1.7162567  -1.2095724    157370.3
  16334.393   1.7158203   -1.209949   158279.28
  16337.221   1.7137758  -1.2102835   159303.17
  16340.050   1.7105582  -1.2107302      160145
  16342.881   1.7063282  -1.2111345   160948.75
  16345.713    1.701863  -1.2113792   161907.42
  16348.544   1.6978605  -1.2119105   162913.02
  16351.378    1.694334  -1.2122234   163762.53
  16354.211   1.6913141  -1.2127063   164735.98
  16357.047   1.6879873  -1.2131398   165537.34
  16360.238   1.6840787    -1.21351   166514.62
  16363.076   1.6817669  -1.2139782   167501.84
  16365.914   1.6815951  -1.2142006   168322.97
  16369.107   1.6851409  -1.2147152   169466.03
  16371.948   1.6898504  -1.2152494   170342.02
  16375.146   1.6942345  -1.2155391   171122.92
  16377.989   1.6970764  -1.2158337   172280.75
  16381.188   1.6997458  -1.2164021    173320.5
  16384.389   1.7016245  -1.2167993   174155.17
  16387.234   1.7027796  -1.2170897   175205.77
  16390.438   1.7032162  -1.2176229    176038.3
  16393.641   1.7008923  -1.2178502   177002.73
  16396.848    1.694985   -1.218478   177962.09
  16400.055   1.6878146  -1.2188383   178910.39
  16403.262   1.6827507  -1.2195332   179757.61
  16406.471   1.6806393  -1.2199621   180722.73
  16409.684   1.6801873  -1.2202523    181726.8
  16412.895   1.6802748  -1.2207168   182602.78
  16416.107    1.679565  -1.2212143   183809.69
  16419.320   1.6773979  -1.2216271   184584.52
  16422.895   1.6740132  -1.2221061   185545.27
  16426.111   1.6709409  -1.2227629   186581.95
  16429.332   1.6695693  -1.2231469   187483.55
  16432.908   1.6711455  -1.2235869   188603.08
  16436.129   1.6729782  -1.2242212   189603.52
  16439.711   1.6746265   -1.224643   190576.89
  16443.291    1.676309  -1.2251082   191698.17
  16446.518    1.677847  -1.2255212   192505.39
  16450.104   1.6786469  -1.2257801   193498.53
  16453.689    1.678073  -1.2263716   194327.59
  16457.277   1.6769341   -1.226872   195328.58
  16460.510   1.6763159  -1.2273307   196514.48
  16464.100   1.6749579  -1.2277743   197504.31
  16467.695   1.6712272  -1.2281666   198366.08
  16471.289   1.6662753  -1.2288642   199382.75
  16474.885   1.6621543   -1.229428   200308.36
  16478.842   1.6597354  -1.2299013   201349.87
  16482.441    1.658662  -1.2304145   202594.33
  16486.043   1.6584022  -1.2308984    203754.7
  16489.646   1.6570939  -1.2314202      204605
  16493.611   1.6556409  -1.2319809    205522.2
  16497.217   1.6557771  -1.2325411   206853.36
  16500.826   1.6574956  -1.2328566   207559.42
  16504.797   1.6610649  -1.2334782   208426.41
  16508.406   1.6649172  -1.2341219   209271.31
  16512.381   1.6678157   -1.234739   210327.14
  16516.357   1.6658431  -1.2351379   211126.91
  16519.975   1.6616981  -1.2357043   212052.58
  16523.953    1.657943  -1.2364077   213081.19
  16527.936   1.6549186  -1.2370208   213904.72
  16531.920   1.6527154  -1.2373336   214939.17
  16535.906   1.6513635  -1.2377653   216099.55
  16539.531   1.6501518  -1.2383204   216968.84
  16543.520   1.6467404  -1.2389598   218047.06
  16547.875   1.6422525  -1.2394525    219153.2
  16551.867   1.6397013   -1.239852   219919.27
  16555.863   1.6392501  -1.2403192   220381.25
  16559.861   1.6398982  -1.2408649   221379.17
  16563.859   1.6397932  -1.2412132      222793
  16567.863   1.6395216  -1.2419485   223591.77
  16572.230   1.6399336  -1.2424619   224584.45
  16576.234     1.64097   -1.242892   225543.05
  16580.607    1.643135  -1.2433155   226567.58
  16584.617   1.6441494  -1.2438036   227411.03
  16588.992   1.6428651  -1.2442637   227907.41
  16593.008   1.6406204  -1.2448509    228806.7
  16597.387   1.6367015  -1.2453622   229562.94
  16601.406   1.6334847  -1.2460161   230425.08
  16605.793   1.6314986  -1.2465781   230935.14
  16610.182   1.6304543  -1.2470577   232196.14
  16614.570   1.6311066  -1.2475159   233273.05
  16618.963   1.6308874   -1.247995   233916.89
  16622.992   1.6296815  -1.2484187   234818.66
  16627.389   1.6270965  -1.2490242   235540.33
  16631.789   1.6241375  -1.2495273   236091.94
  16636.191   1.6203526  -1.2501332   237261.47
  16640.963    1.618334  -1.2507406   238042.92
  16645.369   1.6171603  -1.2513202   238825.31
  16649.779   1.6163265  -1.2519909   239525.61
  16654.189   1.6158809  -1.2525257   240518.83
  16658.604   1.6170557    -1.25306   241574.98
  16663.389    1.619286  -1.2536732   242460.05
  16667.809   1.6205319  -1.2540511   243103.05
  16672.598   1.6199298   -1.254657   243680.97
  16677.021   1.6185845  -1.2553224    244565.8
  16681.818   1.6159806  -1.2559531   245571.56
  16686.246    1.612115   -1.256405   245873.25
  16691.047   1.6088488  -1.2571307   246935.86
  16695.480   1.6070197  -1.2575285   247482.39
  16700.287   1.6056176  -1.2581045   248096.86
  16705.096   1.6049803  -1.2591146   248650.23
  16709.908   1.6033995  -1.2589298   248957.53
  16714.723   1.6025062  -1.2593955   249379.77
  16719.170   1.5993077  -1.2600122   250665.91
  16723.990   1.5971415  -1.2605669   251652.98
  16728.813   1.5963595  -1.2610787   252169.98
  16733.639   1.5964184  -1.2616921   252853.91
  16738.840   1.5971073  -1.2623626   253504.75
  16743.670   1.5973856  -1.2630137   254071.52
  16748.506    1.596564  -1.2637599    254526.2
  16753.342    1.594501  -1.2643881   254963.81
  16758.182   1.5920438  -1.2647646   255710.34
  16763.396   1.5907337  -1.2653253    256053.8
  16768.244   1.5900032   -1.265962   256701.19
  16773.094   1.5891309   -1.266498   257320.48
  16778.318   1.5873064  -1.2672711   257560.72
  16783.174    1.585211  -1.2678932   258104.87
  16788.404   1.5831072  -1.2686861   258501.95
  16793.641   1.5810616  -1.2694411   258842.94
  16798.504   1.5791742    -1.26999   259328.86
  16803.746   1.5777868  -1.2706192    259786.7
  16808.990    1.577135  -1.2710482   260114.48
  16813.863   1.5759567  -1.2714078   260280.17
  16819.115   1.5740568  -1.2719327   259373.78
  16824.369   1.5729267  -1.2727812   261527.33
  16829.627   1.5724645  -1.2734307   261933.78
  16834.887   1.5720832  -1.2739538   262245.16
  16840.152   1.5707287  -1.2746978   262531.47
  16845.420    1.568101  -1.2750198   262697.72
  16850.691    1.566201   -1.275788   263018.84
  16855.965   1.5651515  -1.2764447   263685.94
  16861.244   1.5651336  -1.2769232   263982.94
  16866.525   1.5649264  -1.2775406   264004.87
  16872.188   1.5642027  -1.2782864   264396.72
  16877.477   1.5622488  -1.2790058   264266.47
  16882.768    1.559739  -1.2797629   264293.16
  16888.441   1.5573988  -1.2805192   264770.78
  16893.740   1.5557029  -1.2812064   265145.31
  16899.041   1.5533305  -1.2820767   265323.78
  16904.727   1.5503669  -1.2824246   265187.19
  16910.416   1.5487145  -1.2831865    265509.5
  16915.729   1.5481709  -1.2838507   265917.72
  16921.424   1.5483072  -1.2843706   266068.87
  16926.744   1.5482932  -1.2849315   266207.97
  16932.447   1.5470436   -1.285458   266886.97
  16938.154   1.5447707  -1.2863936   267364.87
  16943.865   1.5430335  -1.2870123   267163.72
  16949.582   1.5420155   -1.287644    267537.5
  16955.301   1.5403175  -1.2883521   267583.19
  16960.643   1.5383831  -1.2887391   267708.81
  16966.371    1.536409  -1.2895461   267659.37
  16972.100   1.5355568  -1.2903508   267300.81
  16977.836   1.5346618  -1.2911621   267585.22
  16983.957   1.5332117  -1.2919362   266816.53
  16989.699   1.5316064  -1.2926508   266590.75
  16995.447   1.5309238  -1.2937246   266827.91
  17001.197   1.5293776  -1.2947148      266783
