# XDI/1.0 EXAFS Data Collector 1.1 AD.RGN
# Column.1: energy eV
# Column.2: mutrans
# Column.3: mufluor
# Column.4: murefer
# Column.5: i0
# Beamline.name: SSRL 4-3
# Detector.I0: N2 15cm
# Detector.I1: N2+Ar 30cm
# Detector.If: Ar   (Lytle detector, using Rb Filter)
# Detector.I2: Ar
# Element.edge: K
# Element.symbol: Sr
# Mono.d_spacing: 1.920128
# Mono.name: Si(220)
# Mono.notes: (?) unfocussed, detuned 50%, clockwise at E=17000eV
# Sample.formula: SrO
# Sample.name: strontium oxide
# Sample.prep: powder
# Sample.reference: SrCO3
# Sample.temperature: room temperature
# Scan.start_time: 1995-06-14 19:09:21
# ///
#    Note: mono d_spacing is nominal!
#-------------
#   energy   mutrans    mufluor     murefer      i0
  15699.933  -1.6272269  0.38281376   1.0787748   203845.59
  15710.044  -1.6296834   0.3788912   1.0774946   202585.59
  15719.844   -1.632145  0.37569676   1.0762004   201361.59
  15729.982  -1.6346135  0.37123025   1.0749122   200298.59
  15740.136  -1.6371913  0.36855865   1.0735716   198863.59
  15749.973  -1.6396634   0.3646628   1.0723862   197727.59
  15760.152  -1.6423001  0.35998331   1.0710509   193822.59
  15770.016  -1.6447019  0.35581417   1.0699417   195219.59
  15779.891  -1.6470916  0.35135364    1.068593   194504.59
  15790.109  -1.6496215  0.34662778   1.0672204   193065.59
  15800.011  -1.6521229  0.34287655   1.0659946   191832.59
  15809.925  -1.6545444   0.3384568    1.064721   190697.59
  15819.854   -1.657051  0.33582482   1.0633548   189190.59
  15830.124   -1.659495  0.32995011   1.0621442   187976.59
  15840.076  -1.6619685  0.32700271   1.0608598   186811.59
  15850.042  -1.6644165  0.32361434     1.05954   185612.59
  15860.021  -1.6668595  0.32007631   1.0582776   184352.59
  15870.012  -1.6693035  0.31531216   1.0570502   183208.59
  15880.018  -1.6717472  0.31202806   1.0557277   181909.59
  15890.033  -1.6742026  0.30958744   1.0544423   180717.59
  15900.063  -1.6766057  0.30590143   1.0532269   179400.59
  15910.108  -1.6790016  0.30362573   1.0518936   178314.59
  15920.164  -1.6813064  0.30058191   1.0505782   176866.59
  15929.896  -1.6836673  0.29787051   1.0493799   175807.59
  15939.978  -1.6861016  0.29631251   1.0480923   174774.59
  15950.073  -1.6884036  0.29498413   1.0468445   173405.59
  15959.844  -1.6906591  0.29371546   1.0455826   172101.59
  15969.964  -1.6930267  0.29213414   1.0442502   170811.59
  15980.097  -1.6953292  0.29213857   1.0430007   169559.59
  15989.906  -1.6975111  0.29290931     1.04176   168471.59
  16000.064  -1.6997756  0.29429002   1.0404687   167317.59
  16009.897  -1.7019215   0.2969778   1.0392548   166163.59
  16020.082  -1.7040772  0.29939409   1.0380057   164842.59
  16029.942  -1.7061946  0.30340959   1.0367352   163837.59
  16040.152  -1.7081033  0.31000372   1.0355747   162481.59
  16050.036  -1.7098906  0.31823247   1.0342977   161158.59
  16059.933  -1.7114827  0.33089077    1.033106   160200.59
  16069.841  -1.7128158   0.3473535   1.0319777   158892.59
  16080.104  -1.7137745  0.37252156    1.030809   157437.59
  16090.039  -1.7138583  0.40862168   1.0297748   156310.59
  16099.984  -1.7125448  0.46790122   1.0288441   155376.59
  16109.943  -1.7079134  0.57689771   1.0282307   153978.59
  16119.917  -1.6930008  0.83954628   1.0287172   152783.59
  16121.293  -1.6899564  0.88850922    1.028941   152646.59
  16122.670  -1.6856281  0.95731773   1.0292542   152327.59
  16123.702  -1.6817009   1.0204234    1.029576   152438.59
  16125.079  -1.6747086     1.13026   1.0301352   152159.59
  16126.112  -1.6679814   1.2339814   1.0307633   151953.59
  16127.490  -1.6553824   1.4217796   1.0318945   151769.59
  16128.867  -1.6361286   1.7108967   1.0337752   151742.59
  16129.901  -1.6152301   2.0183232   1.0358308   151704.59
  16131.278  -1.5691595   2.6785164   1.0404031   151394.59
  16132.657  -1.5010755   3.5932712   1.0476596   151239.59
  16133.690  -1.4371304   4.3965368   1.0548117   151172.59
  16135.069  -1.3299284   5.6152029   1.0670957   151099.59
  16136.104    -1.24355   6.5017275   1.0770568   150803.59
  16137.483  -1.1163072   7.6818695   1.0920236   150519.59
  16138.861  -0.9822614   8.8302111   1.1093072   150436.59
  16139.897   -0.878348   9.2423254   1.1233677   150250.59
  16141.276 -0.73676325   9.2428175   1.1416917   150242.59
  16142.657 -0.61590356   9.2509802   1.1551562   150109.59
  16143.692 -0.55232744   9.2451292   1.1599568   150204.59
  16145.073 -0.50828304   9.2730691   1.1589188   149751.59
  16146.108 -0.51152671   9.2816643   1.1540281   149612.59
  16147.490 -0.55109698   9.2872998   1.1440984   149521.59
  16148.871 -0.60703071   9.2932398   1.1335253   149425.59
  16149.907 -0.64654199   9.3229875   1.1263838   148948.59
  16151.289 -0.69253277   9.3217291    1.118084   148968.59
  16152.670 -0.72599064   9.3327621    1.112419   148792.59
  16153.707 -0.74595725    9.356989    1.109501   148406.59
  16155.090 -0.77144357    9.366991   1.1069119   296495.19
  16155.779 -0.78255889    9.368949    1.106007   296432.16
  16156.473 -0.79418635    9.368993   1.1052518   296502.06
  16157.162 -0.80617444     9.37613   1.1046908   296347.91
  16157.854 -0.81873287   9.3824759   1.1041459   296290.69
  16158.547 -0.83114999   9.3904781   1.1037677   296181.41
  16159.237 -0.84313302   9.3934531   1.1034859   296267.06
  16160.274 -0.86034614   9.4035033   1.1034024   296201.66
  16160.968 -0.86871339   9.4003216   1.1035887   296559.19
  16161.659 -0.87590696   9.4081278   1.1039121   296623.66
  16162.695 -0.88296854   9.4260174   1.1048057   296446.06
  16163.389 -0.88469248   9.4371881   1.1055213   296517.37
  16164.426 -0.88370026   9.4483294   1.1069195   296546.66
  16165.465 -0.87883074   9.4621954   1.1082028   296499.87
  16166.157 -0.87431893   9.4702185   1.1089836   296687.03
  16167.195 -0.86564325   9.5063289   1.1102795   296039.09
  16168.234 -0.85623717   9.5225732   1.1112024   296050.12
  16169.271 -0.84620905   9.5237172   1.1120524   296582.09
  16170.311 -0.83579695   9.5240717     1.11303      297175
  16171.349 -0.82558498   9.5391272   1.1141943   297344.81
  16172.388 -0.81525842   9.5421672   1.1155518   297923.59
  16173.428 -0.80489208   9.5179256   1.1168696   299394.28
  16174.466  -0.7946992   9.5129433    1.118239   300297.94
  16175.506 -0.78548615   9.5252088   1.1194069   300657.53
  16176.545 -0.77682378   9.5287584   1.1204423   301363.03
  16177.932 -0.76656509   9.5454086    1.121447    301688.5
  16178.971 -0.76017138   9.5623318   1.1219559   302039.87
  16180.012 -0.75473743   9.5696935   1.1220633   302692.22
  16181.399 -0.74950551   9.5684896   1.1218721   303685.47
  16182.440 -0.74737013   9.5787413   1.1214788   304350.69
  16183.826 -0.74656156   9.6023991   1.1206597   304587.81
  16185.214 -0.74793757    9.610335   1.1195787   305393.91
  16186.254 -0.74991177   9.6279922   1.1188358   305888.91
  16187.644 -0.75343259   9.6211514   1.1176047   307232.87
  16189.030 -0.75736803   9.6551593   1.1161125   307273.75
  16190.419 -0.76145644   9.6605351   1.1145146   308294.59
  16191.809 -0.76607966   9.6600079   1.1129346   309503.34
  16193.197 -0.77150457   9.6834214   1.1114649   310014.03
  16194.587 -0.77813718    9.691943   1.1100684   310999.69
  16195.976 -0.78606477   9.7098348    1.108951   311717.25
  16197.366 -0.79495852   9.7230035   1.1077665   312653.75
  16198.755 -0.80442397   9.7345264   1.1068689   313640.22
  16200.493 -0.81650396   9.7406124   1.1057399   314835.59
  16201.884 -0.82510702   9.7674606   1.1051237   315391.91
  16203.274  -0.8327014   9.7888502   1.1046258   316156.16
  16205.013 -0.84043318   9.8000377   1.1042636   317328.34
  16206.405 -0.84472217   9.8069668   1.1043128    318639.5
  16208.145 -0.84830263   9.8195022   1.1046018   319813.56
  16209.884 -0.84973478   9.8311084   1.1050507   321036.56
  16211.276 -0.84957939   9.8487607   1.1054988    322090.5
  16213.016 -0.84815146   9.8700501   1.1061002   323051.37
  16214.757 -0.84555988   9.8893673   1.1065301   324087.19
  16216.499 -0.84229366   9.9094017   1.1068585   325128.94
  16218.240 -0.83871722    9.919701   1.1069337   326511.66
  16219.981 -0.83505558   9.9375554   1.1069293   327651.28
  16221.725 -0.83135162   9.9563995   1.1069378   328824.84
  16223.468 -0.82787315   9.9804488   1.1067438   329861.34
  16225.210 -0.82463743   9.9995498   1.1065965   331090.78
  16226.954 -0.82187794   10.023111   1.1064258   332205.16
  16228.698 -0.81996395   10.054754   1.1062526   333052.47
  16230.792 -0.81911378   10.099249   1.1061913   333554.72
  16232.535 -0.81952741   10.143268   1.1062121   334119.87
  16234.281 -0.82072039   10.178045   1.1061431      334999
  16236.376  -0.8226928   10.203311   1.1060843   336245.06
  16238.122 -0.82428282   10.209152   1.1057218   338020.06
  16240.217 -0.82604465    10.22188   1.1051524      339559
  16242.313 -0.82779775   10.222626   1.1043737   341493.87
  16244.061 -0.82941776    10.21955    1.103669   343849.69
  16246.159 -0.83170877   10.213623   1.1027052   346054.41
  16248.257 -0.83413134   10.200924   1.1019156   348963.09
  16250.354 -0.83677345   10.188505   1.1010364   351520.72
  16252.454 -0.83952423   10.185069   1.1002415   353720.28
  16254.553 -0.84235268   10.171131   1.0990757   355362.78
  16256.653 -0.84540047   10.148825   1.0990044   357527.19
  16258.753 -0.84870833   10.127791   1.0990031   358663.56
  16260.855  -0.8519584   10.108274   1.0989251   359599.87
  16262.957 -0.85517502   10.092499   1.0981903   360648.09
  16265.059 -0.85837082   10.075905   1.0978217   362690.28
  16267.162 -0.86169868   10.056389    1.097509   364137.41
  16269.616 -0.86545655   10.039436   1.0972461   366093.44
  16271.719 -0.86825126   10.023339   1.0970142   367594.44
  16274.174 -0.87064052   10.018355   1.0967915   369074.34
  16276.280 -0.87142451   10.020187   1.0965659   371510.22
  16278.736 -0.87106614   10.032975   1.0964864      373794
  16280.844  -0.8699687   10.054657   1.0965388   375494.75
  16283.301 -0.86797979   10.077357   1.0965669   378256.41
  16285.760 -0.86600716   10.102779   1.0965398   380003.03
  16288.220 -0.86428339   10.122951   1.0963635   381962.56
  16290.328 -0.86339173    10.13722    1.096075   383831.06
  16292.790 -0.86264082   10.156229   1.0955919   385582.47
  16295.252 -0.86201992   10.170026   1.0951037   387750.84
  16297.715 -0.86138455   10.183752    1.094652   389375.12
  16300.179  -0.8606475   10.200756   1.0942976   391176.34
  16302.994 -0.86033918   10.212238   1.0941997   393042.53
  16305.459   -0.861003    10.21762   1.0940914   395223.62
  16307.925 -0.86288187    10.21123    1.093903   397104.69
  16310.392 -0.86585705   10.197479   1.0936362   398786.66
  16313.211 -0.86970385   10.177565   1.0933127   400873.56
  16315.680 -0.87249068   10.167096   1.0929921   402342.41
  16318.148 -0.87429677   10.161537   1.0925487   404815.22
  16320.972 -0.87541927   10.164461   1.0920625   406852.94
  16323.442 -0.87589302   10.168013     1.09152   408693.59
  16326.268 -0.87618917   10.177973   1.0909142   411111.19
  16329.092 -0.87655076   10.185431   1.0903186   412921.72
  16331.564 -0.87696965   10.193755   1.0898734   414622.22
  16334.393 -0.87746788   10.200893   1.0893426   417281.62
  16337.221 -0.87834935   10.204615   1.0888479   419186.97
  16340.050  -0.8795592   10.203883   1.0883466   421014.25
  16342.881 -0.88119104   10.204724   1.0877955   422987.47
  16345.713  -0.8832928    10.20018   1.0873847   425750.62
  16348.544 -0.88575546   10.189006   1.0870138   426664.72
  16351.378 -0.88819227   10.182082   1.0867402   429154.75
  16354.211 -0.89045433   10.173171   1.0865139   431750.72
  16357.047 -0.89243643   10.171499    1.086333   433355.62
  16360.238  -0.8943293   10.165591   1.0861626   435542.47
  16363.076 -0.89557468   10.166545   1.0860224   438044.25
  16365.914 -0.89627095   10.174581   1.0858359   439868.97
  16369.107 -0.89643482   10.188285   1.0854775   441868.62
  16371.948 -0.89630665   10.197342    1.085088   444925.22
  16375.146 -0.89631339   10.213283   1.0846584   446101.75
  16377.989  -0.8965682   10.220091   1.0841818   448291.22
  16381.188 -0.89721972   10.228589   1.0835595   450107.62
  16384.389 -0.89806614   10.234241   1.0829785   452498.97
  16387.234  -0.8987955   10.244803   1.0825616   454479.22
  16390.438 -0.89963328   10.248708   1.0820021   456829.44
  16393.641 -0.90053187   10.253208   1.0815062   458630.59
  16396.848 -0.90169876   10.259082   1.0810318   460601.69
  16400.055 -0.90303395   10.262271   1.0806484   463127.72
  16403.262 -0.90468295    10.26162   1.0801876   464977.66
  16406.471 -0.90664222   10.258431   1.0798403   467195.56
  16409.684 -0.90877782   10.255224   1.0794345   469608.41
  16412.895 -0.91099228    10.25042   1.0790193   471129.16
  16416.107  -0.9131631   10.246072    1.078641   473805.87
  16419.320 -0.91525023   10.242284   1.0781825   476440.53
  16422.895 -0.91714435   10.241256   1.0775972   478589.09
  16426.111 -0.91842838   10.246015   1.0771327   481171.62
  16429.332 -0.91937667   10.252721   1.0766304   483484.09
  16432.908 -0.92030611    10.25842   1.0761006   485610.47
  16436.129 -0.92092942   10.265905   1.0756816   487924.81
  16439.711 -0.92172892   10.272941   1.0751572   489416.06
  16443.291 -0.92259722    10.28145   1.0746577   492003.28
  16446.518 -0.92357178   10.289714   1.0743001   493094.41
  16450.104 -0.92455178   10.293989   1.0739094    495083.5
  16453.689  -0.9256216   10.300159   1.0735477    497331.5
  16457.277 -0.92680078   10.303907   1.0731962   499521.47
  16460.510 -0.92801516   10.308574   1.0728631   501890.34
  16464.100 -0.92945482   10.311947   1.0724718   504328.19
  16467.695 -0.93114247   10.313963   1.0719322   505254.94
  16471.289 -0.93283749   10.316773   1.0714643   508108.66
  16474.885 -0.93447808   10.317044   1.0710097   509736.28
  16478.842 -0.93610491   10.317798   1.0704518   511903.84
  16482.441 -0.93740248   10.324545    1.069985   514322.37
  16486.043 -0.93867562   10.327898   1.0695006   515082.81
  16489.646 -0.93979196   10.332642   1.0689689   517981.19
  16493.611 -0.94081723   10.342846   1.0683759    519300.5
  16497.217 -0.94165441   10.349133   1.0679254   521962.78
  16500.826 -0.94252336   10.358033   1.0674411   523083.97
  16504.797 -0.94351667   10.368052   1.0669184   524902.12
  16508.406 -0.94451478   10.375004   1.0664723   526811.19
  16512.381 -0.94583114   10.380235   1.0659693   529106.19
  16516.357 -0.94733965   10.384056   1.0653798   530839.12
  16519.975  -0.9488365   10.387008   1.0649992      533119
  16523.953  -0.9505686   10.388503   1.0644416   534377.81
  16527.936 -0.95243769   10.390035   1.0639825   536897.56
  16531.920 -0.95426717   10.392399   1.0634539   537933.25
  16535.906 -0.95597147   10.395457   1.0629224   540317.87
  16539.531 -0.95741626   10.397417   1.0625559   541986.44
  16543.520 -0.95897312   10.400576    1.061976   543578.94
  16547.875 -0.96063279   10.404492   1.0613687   544467.37
  16551.867 -0.96206688   10.410993   1.0608612   545795.75
  16555.863 -0.96356638   10.413678   1.0603495   546756.06
  16559.861  -0.9650159   10.422144    1.059812   549888.31
  16563.859 -0.96628346   10.423321   1.0593207    551762.5
  16567.863 -0.96759708   10.429714   1.0588129   552916.62
  16572.230 -0.96897155   10.441366   1.0581967   554213.69
  16576.234   -0.970177   10.445479   1.0577016   555641.69
  16580.607 -0.97154896   10.454051   1.0571117   557100.62
  16584.617  -0.9728071   10.459201   1.0565771    559284.5
  16588.992 -0.97435861   10.464953   1.0560605   560070.31
  16593.008 -0.97587762   10.469287   1.0554704   562142.06
  16597.387 -0.97752808   10.472991   1.0549266   562720.75
  16601.406 -0.97906536   10.476496   1.0543298   564891.37
  16605.793 -0.98074405   10.481914    1.053756   565958.94
  16610.182 -0.98240352   10.487078   1.0532628   567893.37
  16614.570 -0.98399598   10.488718   1.0526582   569357.81
  16618.963 -0.98563281   10.495064   1.0520638   570897.19
  16622.992 -0.98712744   10.500605   1.0515361    572082.5
  16627.389 -0.98878911   10.505679   1.0509866   572941.75
  16631.789 -0.99041896   10.509713    1.050318   573600.94
  16636.191  -0.9920545   10.514842   1.0498074   575545.06
  16640.963 -0.99381688   10.519874   1.0491361   576065.06
  16645.369 -0.99535295   10.523494   1.0485748   577294.06
  16649.779 -0.99683502   10.529966   1.0480232      579009
  16654.189 -0.99828925   10.535039   1.0474199   580996.87
  16658.604 -0.99978882     10.5414   1.0468804   581871.69
  16663.389  -1.0014824    10.55126   1.0462784   581684.37
  16667.809  -1.0030266   10.554441   1.0457775   582755.06
  16672.598  -1.0048171   10.560588   1.0451044   583446.69
  16677.021   -1.006467   10.563142   1.0445554   585229.25
  16681.818  -1.0083327   10.568086   1.0438733   585318.69
  16686.246  -1.0099622   10.571491   1.0432014   587045.12
  16691.047  -1.0117846   10.575217   1.0425839    587280.5
  16695.480  -1.0132919   10.579394   1.0419771   589087.81
  16700.287  -1.0149785   10.584979   1.0414312      589360
  16705.096  -1.0166548   10.589307   1.0407846   590600.19
  16709.908  -1.0183028   10.593838   1.0401734   589756.31
  16714.723  -1.0201414   10.601319   1.0394593   591189.31
  16719.170  -1.0216639   10.608975   1.0389429   592541.31
  16723.990  -1.0232842   10.613295   1.0383715   593841.25
  16728.813  -1.0249305   10.619275   1.0376863   593990.06
  16733.639  -1.0265538   10.624564   1.0371163   595068.87
  16738.840  -1.0282995   10.631712    1.036422   595062.62
  16743.670  -1.0298972   10.637287   1.0358433   595126.25
  16748.506   -1.031574   10.641016   1.0352219   596119.87
  16753.342   -1.033322   10.649059   1.0346461   597025.44
  16758.182  -1.0349985   10.654215   1.0340358   597652.87
  16763.396  -1.0367813    10.65953   1.0333873   598396.31
  16768.244  -1.0384893   10.664214   1.0327916   598568.62
  16773.094  -1.0401809   10.668212   1.0321455   600031.94
  16778.318  -1.0420006   10.676912   1.0314852   600404.12
  16783.174  -1.0436244   10.681957   1.0308326   601034.31
  16788.404  -1.0454763   10.685405    1.030123   600681.44
  16793.641  -1.0472714   10.692218   1.0294695   601492.44
  16798.504  -1.0489272   10.695137   1.0288744   601652.44
  16803.746  -1.0507063   10.702691   1.0282264   601228.31
  16808.990  -1.0524785   10.708487   1.0275636   600991.19
  16813.863  -1.0537927   10.712431   1.0270592   597797.94
  16819.115  -1.0560822   10.723507   1.0261871   601123.69
  16824.369  -1.0575463   10.727155   1.0256665   603400.31
  16829.627  -1.0593423   10.733654   1.0250156   602741.94
  16834.887  -1.0610905   10.738756   1.0243827   603523.44
  16840.152  -1.0628887   10.745293   1.0236327   603171.94
  16845.420  -1.0646941   10.752073   1.0229807   602065.31
  16850.691   -1.066418   10.756188   1.0224315   601909.62
  16855.965  -1.0681587   10.762344   1.0218146   601800.94
  16861.244  -1.0698883   10.766684   1.0211396   602359.12
  16866.525  -1.0716408   10.773992   1.0205094   601612.31
  16872.188  -1.0735156   10.779708   1.0198165   600699.37
  16877.477  -1.0752893   10.785881   1.0191788   601017.37
  16882.768  -1.0769887   10.790755   1.0185644   601084.37
  16888.441  -1.0788892   10.797159   1.0178229   600637.25
  16893.740  -1.0806688   10.802745   1.0172059   600389.12
  16899.041  -1.0824012   10.808657   1.0165643   599952.87
  16904.727  -1.0842258   10.813786   1.0158697   599337.56
  16910.416   -1.086063    10.81846   1.0151512   598149.25
  16915.729  -1.0877345   10.828861   1.0145078   598843.81
  16921.424  -1.0896156   10.832229   1.0138652   598472.31
  16926.744  -1.0912852    10.83977   1.0132583   598171.81
  16932.447  -1.0931594   10.843901   1.0125608   596846.19
  16938.154  -1.0949837   10.849808   1.0119531    595953.5
  16943.865  -1.0968742   10.856266   1.0113237   595251.81
  16949.582  -1.0987192   10.861646   1.0106098      594055
  16955.301  -1.1006013   10.867032   1.0099379   592929.12
  16960.643  -1.1022758   10.872569    1.009278   592928.19
  16966.371  -1.1041909   10.876454   1.0086437   591663.25
  16972.100  -1.1060042   10.886238   1.0079727   590712.19
  16977.836  -1.1078237   10.892331   1.0073186   589716.06
  16983.957  -1.1097864   10.897784   1.0066198   590714.87
  16989.699   -1.111598   10.902422   1.0059396   588861.69
  16995.447   -1.113498   10.908461   1.0052796   587758.37
  17001.197  -1.1152973   10.913948   1.0046186      585658
