# XDI/1.0 EXAFS Data Collector 1.1 AD.RGN
# Column.1: energy eV
# Column.2: mutrans
# Column.3: murefer
# Column.4: i0
# Beamline.name: SSRL 4-3
# Detector.I0: N2 15cm
# Detector.I1: N2+Ar 30cm
# Detector.I2: Ar
# Element.edge: K
# Element.symbol: Sr
# Mono.d_spacing: 1.920128
# Mono.name: Si(220)
# Mono.notes: (?) unfocussed, detuned 50%, clockwise at E=17000eV
# Sample.formula: SrO
# Sample.name: strontium oxide
# Sample.prep: powder
# Sample.reference: SrCO3
# Sample.temperature: 10K
# Scan.start_time: 1995-06-16 02:32:00
# ///
#    Note: mono d_spacing is nominal!
#-------------
#   energy   mutrans        murefer      i0
  15699.933  0.99414296  -1.1212782   71919.703
  15710.044  0.99246166  -1.1229854   71523.703
  15719.844   0.9912779  -1.1243783   71177.703
  15729.982  0.98974042  -1.1259172   70769.703
  15740.136  0.98816381  -1.1273122   70405.703
  15749.973  0.98662148  -1.1288542   69980.703
  15760.152  0.98635184  -1.1302864   68666.703
  15770.016  0.98043261  -1.1317666   69303.703
  15779.891  0.98194784  -1.1332665   69029.703
  15790.109   0.9803124  -1.1348947   68655.703
  15800.011    0.978867  -1.1362907   68303.703
  15809.925  0.97737467  -1.1377547   67954.703
  15819.854  0.97587711   -1.139243   67579.703
  15830.124  0.97442909  -1.1408703   67203.703
  15840.076  0.97297219  -1.1422794   66830.703
  15850.042  0.97152154  -1.1437598   66461.703
  15860.021  0.97006389  -1.1453644   66074.703
  15870.012  0.96863052  -1.1467556   65737.703
  15880.018  0.96721031  -1.1483015   65428.699
  15890.033  0.96587761   -1.149841   65044.699
  15900.063   0.9644614  -1.1514352   64666.699
  15910.108  0.96308184  -1.1528932   64252.699
  15920.164  0.96164985  -1.1544584   63922.699
  15929.896   0.9603415  -1.1560206   63585.699
  15939.978  0.95891982  -1.1573856   63299.699
  15950.073  0.95745074  -1.1589388   62857.699
  15959.844  0.95566479  -1.1603518   62490.699
  15969.964  0.95566888  -1.1618481   62134.699
  15980.097  0.95356713  -1.1634325   61770.699
  15989.906   0.9522724    -1.16487   61405.699
  16000.064   0.9513103  -1.1663883   61144.699
  16009.897  0.94971128  -1.1677786   60824.699
  16020.082  0.94840701  -1.1693086   60453.699
  16029.942  0.94785407  -1.1707616   60079.699
  16040.152  0.94659018  -1.1723545   59681.699
  16050.036  0.94546372  -1.1737244   59377.699
  16059.933   0.9447166  -1.1753098   59006.699
  16069.841    0.944092  -1.1766459   58617.699
  16080.104  0.94400431  -1.1783294   58306.699
  16090.039  0.94453144  -1.1797338   57915.699
  16099.984  0.94642636  -1.1812807   57592.699
  16109.943  0.95073707  -1.1825064   57256.699
  16119.917  0.96322353  -1.1839936   56854.699
  16121.293  0.96575694  -1.1841375   56859.699
  16122.670  0.96920989  -1.1845058   56771.699
  16123.702  0.97210382  -1.1844515   56806.699
  16125.079  0.97720512  -1.1846194   56783.699
  16126.112  0.98200777  -1.1847276   56744.699
  16127.490  0.99056316  -1.1849524   56658.699
  16128.867   1.0020707  -1.1850083   56611.699
  16129.901    1.013896  -1.1850491   56554.699
  16131.278     1.03901  -1.1853456   56548.699
  16132.657   1.0814106  -1.1854637   56476.699
  16133.690   1.1298882  -1.1853185   56446.699
  16135.069   1.2254784  -1.1852946   56434.699
  16136.104   1.3099582  -1.1851519   56376.699
  16137.483   1.4292793  -1.1846135   56326.699
  16138.861    1.531179  -1.1842358   56242.699
  16139.897   1.5929458  -1.1838677   56245.699
  16141.276   1.6816718  -1.1836797   56218.699
  16142.657   1.7943552  -1.1833188   56126.699
  16143.692    1.885156  -1.1825148   56079.699
  16145.073   2.0009341  -1.1818296   56003.699
  16146.108   2.0495523  -1.1817045   55928.699
  16147.490   2.0480352  -1.1813483   55944.699
  16148.871   1.9959049  -1.1823608   55803.699
  16149.907    1.949183  -1.1829932   55791.699
  16151.289   1.8927439  -1.1835651   55703.699
  16152.670   1.8531728  -1.1839353   55711.699
  16153.707   1.8305223  -1.1841533   55692.699
  16155.090   1.8026307  -1.1843873    111354.4
  16155.779   1.7913384  -1.1845756   111279.36
  16156.473   1.7803258  -1.1847653   111175.25
  16157.162   1.7698569  -1.1849808   111214.05
  16157.854   1.7606242  -1.1852124   111138.79
  16158.547   1.7522735  -1.1851993   111245.44
  16159.237   1.7442509  -1.1852827   111190.02
  16160.274   1.7321791   -1.185503   111142.52
  16160.968   1.7241289  -1.1856914   111319.95
  16161.659    1.715473   -1.185811   111347.29
  16162.695   1.7017583   -1.186097   111483.56
  16163.389   1.6940497  -1.1863556   111445.76
  16164.426   1.6839325  -1.1864928   111526.87
  16165.465   1.6785344  -1.1867286   111602.91
  16166.157   1.6775971   -1.186734   111627.87
  16167.195   1.6798007  -1.1869699   111681.77
  16168.234   1.6847806   -1.186985   111603.58
  16169.271   1.6909607  -1.1872773   111411.31
  16170.311   1.6974616  -1.1873391   111558.97
  16171.349   1.7050059  -1.1874972   111638.55
  16172.388   1.7133808  -1.1875618   111994.05
  16173.428   1.7226096  -1.1877002   112510.48
  16174.466   1.7348632  -1.1879768   113028.83
  16175.506   1.7480383  -1.1879582    113291.1
  16176.545   1.7626342  -1.1880453    113439.3
  16177.932   1.7828446  -1.1880483   113647.41
  16178.971   1.7968404  -1.1878694   113937.45
  16180.012   1.8101288  -1.1880461   114156.42
  16181.399   1.8252603  -1.1882368   114385.31
  16182.440   1.8334898  -1.1881072   114688.12
  16183.826   1.8399813  -1.1884752   114995.86
  16185.214   1.8392177  -1.1886239   115324.52
  16186.254   1.8338192  -1.1887449    115643.1
  16187.644   1.8211322  -1.1890412   115946.61
  16189.030   1.8063912  -1.1893251   116314.03
  16190.419   1.7933651  -1.1895815   116641.38
  16191.809   1.7842494   -1.189902   116993.66
  16193.197   1.7787925  -1.1900067   117362.86
  16194.587   1.7758576  -1.1901677   117802.98
  16195.976   1.7731771  -1.1903108   118069.02
  16197.366   1.7699963  -1.1905978   118466.99
  16198.755    1.765648  -1.1909265   118885.88
  16200.493   1.7581115  -1.1911836    119330.7
  16201.884   1.7508192  -1.1913509   119710.44
  16203.274   1.7424249  -1.1916649    120117.1
  16205.013   1.7315006  -1.1919955   120655.68
  16206.405   1.7247837  -1.1921605   121112.19
  16208.145   1.7184843  -1.1925565   121462.62
  16209.884   1.7153853  -1.1926676   121954.98
  16211.276   1.7150694  -1.1928514   122367.25
  16213.016   1.7166468  -1.1930144   122872.45
  16214.757    1.718356  -1.1932227   123372.58
  16216.499   1.7189748  -1.1935257   123872.62
  16218.240   1.7187622  -1.1936809   124453.59
  16219.981   1.7194782   -1.193949   124865.48
  16221.725   1.7223026  -1.1941089    125301.3
  16223.468   1.7275897  -1.1944466   125750.05
  16225.210   1.7346424  -1.1948048   126286.71
  16226.954   1.7422446  -1.1950335    126928.3
  16228.698   1.7489964   -1.195189    127342.8
  16230.792   1.7537455  -1.1954238   127680.23
  16232.535   1.7537601  -1.1954937   128042.59
  16234.281    1.750598  -1.1957481   128365.87
  16236.376   1.7460377  -1.1961119   128540.08
  16238.122   1.7438368  -1.1964077    128882.2
  16240.217   1.7451781  -1.1966725   129222.25
  16242.313   1.7498511  -1.1969125   129920.22
  16244.061   1.7534276  -1.1970754   130588.12
  16246.159   1.7550856  -1.1972349   131683.94
  16248.257   1.7528522  -1.1976847   133005.67
  16250.354   1.7467741  -1.1977736   134212.34
  16252.454   1.7385155  -1.1980979   135365.94
  16254.553   1.7302024  -1.1985139   136393.44
  16256.653      1.7228  -1.1990429   137093.87
  16258.753   1.7163667  -1.1992858   137815.23
  16260.855   1.7110472  -1.1997587   138321.52
  16262.957   1.7072309  -1.1999448   138690.72
  16265.059   1.7053193   -1.200347   139264.86
  16267.162    1.704647  -1.2006373   139739.91
  16269.616   1.7055441  -1.2009319   140103.87
  16271.719   1.7069311  -1.2011089   140707.78
  16274.174   1.7083549  -1.2014702   141494.59
  16276.280   1.7089698  -1.2018412   142372.34
  16278.736   1.7091916  -1.2021486   143537.02
  16280.844   1.7096469    -1.20236   144619.59
  16283.301   1.7107918  -1.2025798   145604.11
  16285.760   1.7123845  -1.2030214   146528.55
  16288.220   1.7143112  -1.2034149   147337.91
  16290.328   1.7151745  -1.2037209    148053.2
  16292.790   1.7143655  -1.2040449   148909.41
  16295.252   1.7121298  -1.2044104   149716.53
  16297.715   1.7114876  -1.2048578   150548.59
  16300.179   1.7139557  -1.2051769   151445.56
  16302.994   1.7188969  -1.2055846   152226.47
  16305.459   1.7205564  -1.2058927   152990.28
  16307.925   1.7182682   -1.206214   153964.03
  16310.392   1.7137857  -1.2066136    154825.7
  16313.211   1.7074467  -1.2070757    155492.3
  16315.680   1.7023365  -1.2073676   156390.81
  16318.148   1.6989195  -1.2077146   157214.25
  16320.972   1.6985346  -1.2080619   158061.61
  16323.442   1.7013704  -1.2084036   159173.91
  16326.268   1.7066077  -1.2086403   160015.11
  16329.092   1.7110981  -1.2090839   160646.23
  16331.564    1.712592  -1.2093867    161678.3
  16334.393   1.7121366   -1.209841   162584.28
  16337.221   1.7101959  -1.2102956   163661.17
  16340.050   1.7070279  -1.2107155      164575
  16342.881   1.7027662  -1.2110704   165530.75
  16345.713   1.6983259  -1.2115088   166352.42
  16348.544   1.6942537  -1.2118746   167252.02
  16351.378   1.6909701  -1.2124081   168333.53
  16354.211   1.6877379   -1.212802   169127.98
  16357.047   1.6842139  -1.2130395   170000.34
  16360.238   1.6804118  -1.2135557   171020.62
  16363.076   1.6781513  -1.2140892   171904.84
  16365.914   1.6781709  -1.2144978   172856.97
  16369.107   1.6818469  -1.2150118   173838.03
  16371.948   1.6863584  -1.2153292   174743.02
  16375.146   1.6907088  -1.2156914   175699.92
  16377.989   1.6935082  -1.2157778   176697.75
  16381.188   1.6960392  -1.2162825    177624.5
  16384.389   1.6979481  -1.2165692   178558.17
  16387.234   1.6992916  -1.2170174   179611.77
  16390.438   1.6996563  -1.2175183    180589.3
  16393.641   1.6971949  -1.2179243   181660.73
  16396.848   1.6911429  -1.2183239   182613.09
  16400.055    1.684066  -1.2188621   183628.39
  16403.262    1.679163  -1.2193293   184351.61
  16406.471   1.6770961  -1.2197835   185390.73
  16409.684   1.6766588  -1.2201436    186348.8
  16412.895   1.6767719  -1.2206606   187285.78
  16416.107   1.6759549  -1.2210593   188234.69
  16419.320   1.6739261  -1.2217127   189128.52
  16422.895   1.6704726  -1.2222052   190172.27
  16426.111   1.6672737  -1.2225678   191254.95
  16429.332    1.666212  -1.2230351   192279.55
  16432.908   1.6677546   -1.223418   193392.08
  16436.129   1.6694946  -1.2239951   194354.52
  16439.711   1.6713137  -1.2244334   195334.89
  16443.291   1.6730369  -1.2249429   196139.17
  16446.518   1.6747124  -1.2255119   197085.39
  16450.104    1.675583  -1.2260209   198061.53
  16453.689   1.6747931  -1.2264347   198991.59
  16457.277   1.6734628  -1.2267773   200067.58
  16460.510   1.6728266  -1.2271833   201194.48
  16464.100   1.6713702  -1.2276252   202164.31
  16467.695    1.667847  -1.2284208   203326.08
  16471.289   1.6625652  -1.2287348   204217.75
  16474.885   1.6585202  -1.2292851   205106.36
  16478.842   1.6561761  -1.2297523   206161.87
  16482.441   1.6552504  -1.2303029   207107.33
  16486.043   1.6549998  -1.2307274    208295.7
  16489.646    1.653492  -1.2310911      209267
  16493.611   1.6521051  -1.2316294    210265.2
  16497.217   1.6522571  -1.2321929   211204.36
  16500.826   1.6541323  -1.2326803   211939.42
  16504.797   1.6576064  -1.2330393   213184.41
  16508.406   1.6613346  -1.2335044   214126.31
  16512.381    1.664019  -1.2339645   214990.14
  16516.357   1.6619641  -1.2344299   215768.91
  16519.975   1.6579433  -1.2349695   216595.58
  16523.953   1.6540438  -1.2355736   217506.19
  16527.936   1.6511551  -1.2361054   218522.72
  16531.920   1.6490423  -1.2366172   219431.17
  16535.906   1.6476338  -1.2370052   220271.55
  16539.531   1.6465873   -1.237688   221214.84
  16543.520   1.6429455  -1.2382019   222650.06
  16547.875   1.6386249  -1.2387104    223559.2
  16551.867   1.6364602  -1.2393456   224257.27
  16555.863   1.6360657  -1.2396883   225072.25
  16559.861   1.6366817  -1.2403412   225986.17
  16563.859   1.6364807  -1.2408669      227296
  16567.863   1.6362654  -1.2415069   228262.77
  16572.230   1.6365625  -1.2419852   229315.45
  16576.234    1.637795   -1.242446   229977.05
  16580.607   1.6400694  -1.2429741   230962.58
  16584.617   1.6412502  -1.2435422   231682.03
  16588.992   1.6401117  -1.2442056   232400.41
  16593.008   1.6376029   -1.244595    233280.7
  16597.387   1.6337331   -1.245232   234107.94
  16601.406   1.6306235  -1.2457128   235078.08
  16605.793    1.628552  -1.2461534   235510.14
  16610.182   1.6276252  -1.2466971   236698.14
  16614.570   1.6282371  -1.2471017   237674.05
  16618.963    1.628242  -1.2477236   238719.89
  16622.992   1.6271161  -1.2481757   239789.66
  16627.389   1.6247882  -1.2489276   240648.33
  16631.789   1.6217426  -1.2493851   241064.94
  16636.191   1.6179595  -1.2500895   242009.47
  16640.963   1.6160838  -1.2509016   242948.92
  16645.369   1.6148285  -1.2513307   243522.31
  16649.779   1.6139412  -1.2518841   244218.61
  16654.189   1.6138281  -1.2525834   245097.83
  16658.604   1.6151345  -1.2531969   246154.98
  16663.389   1.6173592  -1.2536915   246519.05
  16667.809   1.6186162  -1.2544963   247593.05
  16672.598   1.6179699  -1.2550689   248397.97
  16677.021   1.6166587  -1.2556203    249035.8
  16681.818   1.6140725  -1.2563388   249669.56
  16686.246   1.6102779  -1.2568198   250526.25
  16691.047   1.6068076  -1.2574325   251169.86
  16695.480   1.6052237   -1.258072   251753.39
  16700.287   1.6039935   -1.258583   252348.86
  16705.096   1.6030887  -1.2592795   253064.23
  16709.908   1.6024131  -1.2600084   253612.53
  16714.723   1.6018833  -1.2607722   253670.77
  16719.170   1.5987296  -1.2612223   254898.91
  16723.990   1.5965809  -1.2617611   255682.98
  16728.813   1.5959366  -1.2622286   256211.98
  16733.639   1.5960425  -1.2627586   256537.91
  16738.840   1.5969027  -1.2635004   257111.75
  16743.670   1.5969844  -1.2639023   257727.52
  16748.506   1.5960174  -1.2643058    258378.2
  16753.342   1.5936864  -1.2649282   259062.81
  16758.182   1.5915504  -1.2654732   259788.34
  16763.396   1.5902795  -1.2661092    260420.8
  16768.244   1.5895839  -1.2666882   260951.19
  16773.094   1.5886118  -1.2673237   261770.48
  16778.318   1.5864711   -1.267972   262207.72
  16783.174   1.5844392  -1.2687035   262601.87
  16788.404    1.582421  -1.2695684   263278.94
  16793.641   1.5802328  -1.2700751   263775.94
  16798.504   1.5784046  -1.2708613   264252.87
  16803.746   1.5770502  -1.2714471   264416.72
  16808.990   1.5765554   -1.272098   264908.47
  16813.863   1.5756056    -1.27279   265003.16
  16819.115     1.57351  -1.2730079   264267.78
  16824.369   1.5721128  -1.2735224   266685.31
  16829.627   1.5716921    -1.27435   267080.78
  16834.887   1.5716131  -1.2748796   267148.16
  16840.152   1.5702383  -1.2755208   267787.47
  16845.420   1.5681005  -1.2765504   268238.72
  16850.691   1.5659211  -1.2771304   268641.84
  16855.965   1.5649494   -1.277803   268615.94
  16861.244   1.5650662  -1.2782042   268862.94
  16866.525    1.565063  -1.2787464   269000.87
  16872.188   1.5643627  -1.2796315   269108.72
  16877.477   1.5622369  -1.2801936   269991.47
  16882.768    1.559329  -1.2808536   270600.16
  16888.441   1.5569799  -1.2815049   270751.78
  16893.740   1.5552179  -1.2821944   270875.31
  16899.041   1.5528413   -1.282753   271208.78
  16904.727   1.5500934  -1.2833418   270896.19
  16910.416   1.5490259  -1.2840553    270035.5
  16915.729   1.5484389  -1.2844654   270222.72
  16921.424   1.5490671  -1.2853459   270822.87
  16926.744   1.5493405  -1.2858612   271232.97
  16932.447   1.5483364  -1.2865434   271060.97
  16938.154   1.5465025  -1.2876708   271513.87
  16943.865    1.545443  -1.2887736   271386.72
  16949.582   1.5446758  -1.2896261    271563.5
  16955.301    1.543181  -1.2904361   271523.19
  16960.643   1.5414558  -1.2910286   271643.81
  16966.371   1.5394693  -1.2915487   271589.37
  16972.100   1.5383009  -1.2920579   271690.81
  16977.836   1.5375095  -1.2928054   271554.22
  16983.957   1.5356627  -1.2933391   271595.53
  16989.699   1.5338601  -1.2940231   271758.75
  16995.447   1.5328404  -1.2948023   271470.91
  17001.197    1.530827  -1.2954128      271510
