# XDI/1.0 EXAFS Data Collector 1.1 AD.RGN
# Column.1: energy eV
# Column.2: mutrans
# Column.3: murefer
# Column.4: i0
# Beamline.name: SSRL 4-3
# Detector.I0: N2 15cm
# Detector.I1: N2+Ar 30cm
# Detector.If: Ar   (Lytle detector, using Rb Filter)
# Detector.I2: Ar
# Element.edge: K
# Element.symbol: Sr
# Mono.d_spacing: 1.920128
# Mono.name: Si(220)
# Mono.notes: (?) unfocussed, detuned 50%, clockwise at E=17000eV
# Sample.formula: SrSO4
# Sample.name: strontium sulfate
# Sample.prep: powder
# Sample.reference: SrCO3
# Sample.temperature: 10K
# Scan.start_time: 1995-06-16 08:48:56
# ///
#    Note: mono d_spacing is nominal!
#-------------
#   energy   mutrans       murefer      i0
  15699.933 0.083589229  -1.1317476    130706.7
  15710.044 0.082221802   -1.133239    129927.7
  15719.844 0.080827434  -1.1346771    129373.7
  15729.982 0.079311791  -1.1361635    128809.7
  15740.136 0.077911326  -1.1377157    128152.7
  15749.973 0.076423269  -1.1391086    127670.7
  15760.152 0.074959492   -1.140654    125195.7
  15770.016 0.073557083  -1.1420974    126013.7
  15779.891 0.072137377   -1.143515    126104.7
  15790.109 0.070671052  -1.1448972    125359.7
  15800.011 0.069243796  -1.1463759    124639.7
  15809.925 0.067842204   -1.147751    124092.7
  15819.854 0.066398944   -1.149185    123430.7
  15830.124 0.064920875  -1.1506979    122823.7
  15840.076 0.063521682   -1.152077    122192.7
  15850.042 0.062136209  -1.1535874    121561.7
  15860.021 0.060714906  -1.1549566    121009.7
  15870.012 0.059317536  -1.1563734    120284.7
  15880.018 0.057885339  -1.1577092    119830.7
  15890.033 0.056487138  -1.1591734    119197.7
  15900.063 0.055098593  -1.1605976    118554.7
  15910.108  0.05371751  -1.1620651    117886.7
  15920.164  0.05231671  -1.1634748    117329.7
  15929.896 0.050978863  -1.1648601    116767.7
  15939.978  0.04962335  -1.1663282    116096.7
  15950.073 0.048254432  -1.1677774    115530.7
  15959.844 0.046898101  -1.1692024    114797.7
  15969.964 0.045572862   -1.170594    114107.7
  15980.097 0.044198774  -1.1719827    113573.7
  15989.906 0.042923025  -1.1734747    112995.7
  16000.064 0.041610782   -1.174858    112336.7
  16009.897  0.04035601  -1.1762033    111762.7
  16020.082 0.039070065  -1.1776406    111165.7
  16029.942 0.037848581  -1.1790579    110429.7
  16040.152  0.03668977  -1.1805041    109854.7
  16050.036 0.035537341  -1.1819064    109227.7
  16059.933 0.034506217  -1.1832001    108630.7
  16069.841 0.033593615  -1.1846172    107898.7
  16080.104  0.03285945  -1.1860409    107144.7
  16090.039 0.032426194   -1.187483    106609.7
  16099.984 0.032633621   -1.188865    105880.7
  16109.943 0.034085216  -1.1901978    105204.7
  16119.917 0.038909572  -1.1915579    104592.7
  16121.293 0.039892417  -1.1916922    104622.7
  16122.670 0.041198043  -1.1919268    104593.7
  16123.702 0.042419165  -1.1919323    104533.7
  16125.079 0.044406878  -1.1920676    104511.7
  16126.112 0.046298867  -1.1922496    104357.7
  16127.490  0.04941723  -1.1923177    104311.7
  16128.867 0.053690136  -1.1926492    104171.7
  16129.901 0.057740139  -1.1927635    104010.7
  16131.278 0.065648722   -1.192699    104020.7
  16132.657 0.078357032  -1.1928497    103886.7
  16133.690 0.092111216  -1.1928738    103873.7
  16135.069   0.1193148   -1.192759    103701.7
  16136.104  0.14693404  -1.1927865    103648.7
  16137.483  0.20490842  -1.1923231    103657.7
  16138.861  0.29323995   -1.192537    103461.7
  16139.897  0.37201591  -1.1925532    103501.7
  16141.276  0.49185356  -1.1926863    103270.7
  16142.657  0.62573569  -1.1928751    103070.7
  16143.692  0.72419508  -1.1931519    103114.7
  16145.073  0.82571728   -1.194035    102975.7
  16146.108  0.85103385  -1.1947366    102950.7
  16147.490   0.8056448  -1.1951981    102840.7
  16148.871  0.69645948  -1.1953677    102607.7
  16149.907   0.6121736  -1.1950444    102637.7
  16151.289  0.51750388  -1.1949017    102569.7
  16152.670  0.45887066  -1.1949467    102402.7
  16153.707  0.43729523  -1.1950965    102234.7
  16155.090  0.43233857  -1.1950787   204532.41
  16155.779  0.43676109  -1.1951507   204301.36
  16156.473  0.44443872  -1.1952856   204213.25
  16157.162  0.45360889  -1.1955082   204089.05
  16157.854   0.4626196  -1.1956055   204131.78
  16158.547  0.47011911  -1.1958526   204277.44
  16159.237  0.47549046   -1.195983   204008.02
  16160.274  0.47854777  -1.1961321   204120.52
  16160.968  0.47780258  -1.1962421   204120.94
  16161.659  0.47564933  -1.1963541    204112.3
  16162.695  0.47109741  -1.1964066   204060.56
  16163.389  0.46851523  -1.1964658   204464.75
  16164.426  0.46575161  -1.1966347   204437.87
  16165.465  0.46564798   -1.196654   204507.91
  16166.157  0.46728989  -1.1966415   204628.87
  16167.195  0.47305362  -1.1967539   204776.77
  16168.234  0.48262665   -1.196854   204779.58
  16169.271  0.49531336  -1.1969277   204120.31
  16170.311  0.51070967  -1.1972509   204085.97
  16171.349  0.52745753  -1.1974196   204336.55
  16172.388  0.54527794  -1.1974336   204962.05
  16173.428  0.56394626  -1.1975763   205484.47
  16174.466  0.58209943  -1.1977247   206441.83
  16175.506  0.59793647  -1.1978828   207600.09
  16176.545  0.60975083  -1.1981248    207816.3
  16177.932  0.61397281   -1.198454   208164.41
  16178.971  0.60647131  -1.1985755   208687.45
  16180.012  0.59006114  -1.1986658   209096.42
  16181.399    0.559652  -1.1988073   209353.31
  16182.440  0.53747716  -1.1988582   209930.12
  16183.826  0.51365762   -1.198937   210412.86
  16185.214  0.50225614  -1.1990062   210962.52
  16186.254  0.50237353  -1.1991305   211389.09
  16187.644  0.51267619  -1.1993607   211741.61
  16189.030  0.53097325  -1.1995748   212167.03
  16190.419  0.55112084  -1.1998849   212419.39
  16191.809  0.56524013  -1.2001619   213292.66
  16193.197  0.56770111  -1.2004956   213780.86
  16194.587  0.55720107  -1.2006965   214448.98
  16195.976  0.53758124  -1.2007959   215142.03
  16197.366  0.51483082  -1.2010362      215938
  16198.755  0.49404873  -1.2010597   216525.89
  16200.493  0.47499881  -1.2013461    217356.7
  16201.884  0.46663338  -1.2014886   218128.44
  16203.274  0.46201907  -1.2016602   218774.09
  16205.013  0.45816411  -1.2019065   219379.69
  16206.405  0.45511307  -1.2021682   220195.19
  16208.145  0.45149874  -1.2023125   221034.62
  16209.884  0.45110291  -1.2025141   221810.97
  16211.276   0.4553645  -1.2026648   222487.25
  16213.016  0.46807392  -1.2027768   223378.45
  16214.757  0.48690419   -1.203035   224127.58
  16216.499  0.50687738  -1.2032794   225041.62
  16218.240   0.5239606  -1.2035834   225855.59
  16219.981  0.53564394  -1.2038822   226862.48
  16221.725  0.54207232  -1.2041418    227735.3
  16223.468  0.54395032  -1.2043595   228597.05
  16225.210  0.54374446  -1.2046358    229372.7
  16226.954  0.54479247  -1.2047936    230514.3
  16228.698  0.54831516  -1.2050797    231513.8
  16230.792  0.55207071  -1.2053508   232184.23
  16232.535  0.54978032  -1.2054997   232757.59
  16234.281  0.54041721  -1.2057329   233486.87
  16236.376   0.5229996  -1.2061118   233778.08
  16238.122  0.50866962  -1.2063463    234214.2
  16240.217  0.49460973  -1.2066229   234752.25
  16242.313  0.48440319  -1.2069574   235545.22
  16244.061  0.47811076   -1.207221   236805.12
  16246.159  0.47255091  -1.2075172   238316.94
  16248.257     0.46884  -1.2077149   240724.67
  16250.354  0.46561418  -1.2079471   242778.34
  16252.454   0.4615704  -1.2082367   244696.94
  16254.553    0.457596  -1.2084703   246698.44
  16256.653  0.45606006  -1.2087324   248275.87
  16258.753  0.45862764  -1.2090297   249679.23
  16260.855   0.4639629  -1.2092849   250966.52
  16262.957  0.46939705  -1.2095746   251880.72
  16265.059  0.47400883  -1.2097548   252322.86
  16267.162  0.47898687  -1.2101713   252999.91
  16269.616  0.48725523    -1.21055   253793.87
  16271.719  0.49578969  -1.2108712   254987.78
  16274.174  0.50537153  -1.2112431   256206.59
  16276.280   0.5111982  -1.2115551   257617.34
  16278.736  0.51636144  -1.2118658   259236.02
  16280.844  0.51960516  -1.2121209   261253.59
  16283.301  0.51913903  -1.2124323   263061.12
  16285.760  0.51178666  -1.2128272   264852.56
  16288.220  0.49990923  -1.2131608   266243.91
  16290.328  0.48868697  -1.2134472   267571.19
  16292.790  0.47587875  -1.2137678   268958.41
  16295.252   0.4659844  -1.2140962   270314.53
  16297.715  0.46110027  -1.2144197   271670.59
  16300.179  0.46094122   -1.214694   273467.56
  16302.994   0.4629558  -1.2151922   274693.47
  16305.459  0.46493981  -1.2154675   276115.28
  16307.925  0.46780555  -1.2157637   277764.03
  16310.392   0.4725763  -1.2161394   279490.69
  16313.211  0.47872912  -1.2165372   280638.28
  16315.680  0.48188929  -1.2168647   282130.81
  16318.148  0.48043997  -1.2172367   283609.25
  16320.972  0.47272729   -1.217673   285399.62
  16323.442  0.46491783  -1.2179362   286754.91
  16326.268  0.45994669  -1.2183598   288165.09
  16329.092  0.46198769  -1.2187653   290001.25
  16331.564  0.46764353  -1.2190305   291304.28
  16334.393  0.47421223  -1.2194571   292637.28
  16337.221  0.47795701  -1.2198538   294141.19
  16340.050   0.4792328  -1.2202775      295737
  16342.881  0.48086159  -1.2206468   297523.75
  16345.713  0.48408784  -1.2210444   299039.44
  16348.544  0.48722659  -1.2214568   300747.03
  16351.378  0.48685442  -1.2218568   302640.53
  16354.211  0.48159921   -1.222221   303940.97
  16357.047   0.4730386  -1.2226028   305340.34
  16360.238  0.46258817  -1.2230626   307059.62
  16363.076  0.45369893  -1.2234727   308957.84
  16365.914  0.44694074  -1.2238069   310774.97
  16369.107  0.44503908  -1.2242563   312410.03
  16371.948  0.44824667  -1.2246002      313766
  16375.146  0.45420083  -1.2250648   315327.91
  16377.989  0.45854548  -1.2255258   317097.75
  16381.188  0.46059428  -1.2259842    318841.5
  16384.389  0.46034547  -1.2263824   320050.16
  16387.234  0.46080034  -1.2267824   322070.78
  16390.438  0.46413984  -1.2271383   323782.28
  16393.641  0.46845924  -1.2276169   325641.72
  16396.848  0.46991315   -1.228092   327201.09
  16400.055   0.4672888  -1.2285131   328755.37
  16403.262  0.46215258  -1.2289482   330651.59
  16406.471  0.45729281   -1.229367   332257.75
  16409.684   0.4533745  -1.2298485   333981.81
  16412.895  0.45035419  -1.2302947   335908.78
  16416.107  0.44911946  -1.2307251   337603.69
  16419.320  0.45018024  -1.2311688   338964.53
  16422.895  0.45276507  -1.2316842   340628.28
  16426.111  0.45379535  -1.2321552   342208.94
  16429.332  0.45143888  -1.2326024   344043.56
  16432.908  0.44472707  -1.2330933   346004.06
  16436.129  0.43816721  -1.2335318   347518.53
  16439.711  0.43453646  -1.2339911   349178.87
  16443.291  0.43475961  -1.2344774   351207.19
  16446.518  0.43525465  -1.2349714   352788.41
  16450.104  0.43670371   -1.235459   354540.53
  16453.689   0.4420675  -1.2359469   356348.59
  16457.277  0.45067539  -1.2364089   357780.59
  16460.510  0.45925276  -1.2368217    359473.5
  16464.100   0.4660961  -1.2373478   361072.31
  16467.695  0.46521134  -1.2378371   363169.06
  16471.289  0.45678217   -1.238399   365001.75
  16474.885  0.44553291  -1.2388935   366413.34
  16478.842  0.43461538  -1.2394295   367739.87
  16482.441  0.42875551  -1.2399152   369672.31
  16486.043   0.4274065  -1.2403912   370958.69
  16489.646  0.42810989  -1.2408945      372464
  16493.611  0.42855314  -1.2414184   373823.22
  16497.217  0.42835186  -1.2418716   375167.34
  16500.826  0.42845779  -1.2423756   376798.41
  16504.797  0.43084883  -1.2429163   378175.41
  16508.406  0.43351458  -1.2433788   379943.31
  16512.381  0.43406507  -1.2439568   381686.16
  16516.357  0.43230685  -1.2444962   382863.91
  16519.975  0.43054653  -1.2449958   384344.59
  16523.953  0.42873128  -1.2454596   386235.19
  16527.936  0.42750166  -1.2460392   387510.72
  16531.920  0.42720526  -1.2465906   389248.16
  16535.906  0.42874959   -1.247165   390889.53
  16539.531  0.43121072  -1.2476106   392494.84
  16543.520   0.4317953  -1.2481757   393861.06
  16547.875  0.43070475  -1.2488111   395210.19
  16551.867  0.42939078  -1.2493061   396977.28
  16555.863  0.42685099  -1.2498423   398405.25
  16559.861   0.4243669  -1.2504205   400009.16
  16563.859  0.42231131  -1.2509318      402002
  16567.863  0.41973499  -1.2515035   403118.75
  16572.230  0.41707493  -1.2520459   404478.44
  16576.234  0.41424027  -1.2526245   406432.06
  16580.607  0.41027358    -1.25327   407666.59
  16584.617  0.40821816  -1.2537826   409103.03
  16588.992  0.40878311   -1.254349   410084.41
  16593.008  0.41161982  -1.2548517   411536.72
  16597.387  0.41488862  -1.2554891   413232.94
  16601.406  0.41628904  -1.2560445   414889.06
  16605.793  0.41594907  -1.2566321   416214.16
  16610.182  0.41458917  -1.2572646   416949.12
  16614.570  0.41380732  -1.2577986   418930.06
  16618.963  0.41301523  -1.2583539   420115.87
  16622.992  0.41197468   -1.258907   421875.66
  16627.389  0.41093152  -1.2594868   423387.34
  16631.789  0.40762071  -1.2600393   424177.94
  16636.191  0.40349473  -1.2606613   426052.47
  16640.963  0.39964262  -1.2613554   427087.94
  16645.369  0.39762274  -1.2619859   428812.31
  16649.779  0.39900618  -1.2626027   429375.59
  16654.189   0.4027797   -1.263188   430797.84
  16658.604  0.40670544  -1.2638114   432372.97
  16663.389  0.40765345   -1.264441   433149.06
  16667.809  0.40422751  -1.2650036   434648.03
  16672.598  0.39939627   -1.265624   435797.97
  16677.021  0.39588461  -1.2662522   436803.81
  16681.818  0.39339116  -1.2668587   437838.56
  16686.246  0.39167653   -1.267423   439210.25
  16691.047  0.38952734  -1.2680236   440388.87
  16695.480  0.38880345  -1.2686017   441191.41
  16700.287  0.39044961  -1.2692124   442640.84
  16705.096  0.39360976  -1.2698411   444252.22
  16709.908  0.39538072  -1.2704783   444635.53
  16714.723  0.39451533   -1.271119   444603.75
  16719.170  0.39196936  -1.2717388   446818.91
  16723.990  0.38828301  -1.2723843   447388.97
  16728.813  0.38571494  -1.2730035   448571.97
  16733.639  0.38398109  -1.2736339   449881.91
  16738.840  0.38263463  -1.2742613   450621.75
  16743.670  0.38290147   -1.274875    451691.5
  16748.506  0.38258091  -1.2755267   452091.19
  16753.342  0.38224957   -1.276118   453883.81
  16758.182  0.38197478  -1.2767309   454606.34
  16763.396  0.38204636  -1.2774582   454634.81
  16768.244  0.38217146  -1.2780314   455826.19
  16773.094  0.37992664  -1.2785914    456320.5
  16778.318  0.37667034  -1.2792578   456696.72
  16783.174  0.37452877  -1.2799129   457797.87
  16788.404  0.37304164  -1.2805573   458467.94
  16793.641    0.372247  -1.2812125   459423.94
  16798.504   0.3710603  -1.2818151   459617.87
  16803.746  0.36929201  -1.2824726   460509.72
  16808.990  0.36795192  -1.2831671   461175.47
  16813.863  0.36856592  -1.2837678   461565.16
  16819.115  0.37071606  -1.2844504   460655.78
  16824.369    0.371147  -1.2850065   464571.31
  16829.627  0.36898176  -1.2856862   465325.78
  16834.887  0.36601392  -1.2863421   466077.16
  16840.152  0.36438983  -1.2869334   466258.47
  16845.420  0.36482359  -1.2876506   466904.72
  16850.691  0.36529412  -1.2882934   467353.84
  16855.965  0.36385224  -1.2889784   467874.94
  16861.244  0.36063977  -1.2896187   468674.94
  16866.525  0.35778956  -1.2903068   469095.87
  16872.188  0.35571552  -1.2909689   469519.72
  16877.477  0.35523994  -1.2915917   469905.47
  16882.768  0.35548015  -1.2922762   470954.16
  16888.441  0.35451962  -1.2929784   471456.78
  16893.740  0.35319682  -1.2936254   471687.31
  16899.041  0.35295636   -1.294252   472549.78
  16904.727  0.35256327  -1.2948299   473244.19
  16910.416  0.35192732  -1.2955157    474236.5
  16915.729  0.35076091  -1.2961791   475216.72
  16921.424  0.34943281   -1.296876   476628.87
  16926.744   0.3480437  -1.2975142   478087.97
  16932.447  0.34634549  -1.2982392   478840.97
  16938.154  0.34464388  -1.2989171   479164.87
  16943.865  0.34403931   -1.299643   480332.72
  16949.582  0.34361849  -1.3003205    481969.5
  16955.301  0.34349048  -1.3010184   481950.19
  16960.643  0.34379786  -1.3017021   483278.81
  16966.371  0.34296111  -1.3023797   482946.37
  16972.100  0.34085657  -1.3030976   483228.81
  16977.836  0.33789951  -1.3038336   483411.22
  16983.957  0.33497491  -1.3045897   483240.53
  16989.699  0.33315394  -1.3052963   483210.75
  16995.447  0.33171121  -1.3059819   484299.91
  17001.197  0.33129712  -1.3066645      484993
