# XDI/1.0 EXAFS Data Collector 1.1 AD.RGN
# Column.1: energy eV
# Column.2: mutrans
# Column.3: mufluor
# Column.4: murefer
# Column.5: i0
# Beamline.name: SSRL 4-3
# Detector.I0: N2 15cm
# Detector.I1: N2+Ar 30cm
# Detector.If: Ar (Lytle detector, using Rb filter)
# Detector.I2: Ar
# Element.edge: K
# Element.symbol: Sr
# Mono.d_spacing: 1.920128
# Mono.name: Si(220)
# Mono.notes: (?) unfocussed, detuned 50%, clockwise at E=17000eV
# Sample.formula: SrTiO3
# Sample.name: strontium titanate
# Sample.prep: powder
# Sample.reference: SrCO3
# Sample.temperature: room temperature
# Scan.start_time: 1995-06-14 20:43:05
# ///
#    Note: mono d_spacing is nominal!
#-------------
#   energy   mutrans      mufluor     murefer      i0
  15699.933   -1.625506  0.33304843   1.0795295   212821.59
  15710.044  -1.6278555  0.32969509   1.0784107   211631.59
  15719.844  -1.6302604  0.32568787   1.0771124   210403.59
  15729.982  -1.6326211  0.32161885   1.0759416   209424.59
  15740.136  -1.6350768  0.31786706   1.0748537   208300.59
  15749.973  -1.6374232  0.31399425    1.073639   207143.59
  15760.152  -1.6400646  0.31068216   1.0723375   203593.59
  15770.016  -1.6426309  0.30586141   1.0713116   205056.59
  15779.891  -1.6445546  0.30185101    1.070125   204547.59
  15790.109  -1.6470728   0.2971745   1.0689282   203213.59
  15800.011  -1.6493773  0.29367453   1.0677606   202005.59
  15809.925  -1.6518549   0.2895952      1.0665   201097.59
  15819.854  -1.6541788  0.28599322   1.0654003   199787.59
  15830.124   -1.656601  0.28151541   1.0641981   198791.59
  15840.076  -1.6590649  0.27884349   1.0629606   197791.59
  15850.042  -1.6613361   0.2745279   1.0618126   196653.59
  15860.021    -1.66367  0.27118371   1.0606143   195645.59
  15870.012  -1.6660633   0.2675804   1.0595003   194520.59
  15880.018  -1.6684372  0.26448808   1.0582639   193486.59
  15890.033  -1.6708132  0.26213923   1.0569997   192351.59
  15900.063  -1.6731996  0.25822428   1.0558167   191232.59
  15910.108  -1.6756365  0.25639975   1.0545579   190202.59
  15920.164  -1.6779444  0.25335918   1.0534124   189331.59
  15929.896  -1.6803053  0.25205554   1.0521747   188271.59
  15939.978  -1.6826241  0.24888364   1.0509996   187215.59
  15950.073  -1.6850593  0.24762222   1.0498327   185887.59
  15959.844  -1.6871995  0.24603397   1.0486348   184693.59
  15969.964  -1.6895581  0.24515741   1.0473784   183734.59
  15980.097  -1.6919521   0.2449849   1.0461825   182598.59
  15989.906   -1.694037   0.2441583   1.0450621   181582.59
  16000.064  -1.6964366  0.24453049   1.0437728   180500.59
  16009.897  -1.6986081  0.24591717   1.0426241   179348.59
  16020.082  -1.7009083  0.24687741     1.04149   178217.59
  16029.942  -1.7030702  0.24925165   1.0402344   177057.59
  16040.152  -1.7051527  0.25426598   1.0390591   176102.59
  16050.036  -1.7071878  0.25944651   1.0379254   175064.59
  16059.933  -1.7090962  0.26626199   1.0367583   173948.59
  16069.841  -1.7108349  0.27679781   1.0356762   172840.59
  16080.104  -1.7124662  0.29328846   1.0345036   171656.59
  16090.039   -1.713525  0.31659458   1.0334808   170719.59
  16099.984  -1.7138577    0.354963   1.0326024   169552.59
  16109.943  -1.7124164  0.42714183   1.0320434   168428.59
  16119.917  -1.7053812  0.59967489    1.032365   167505.59
  16121.293  -1.7038685  0.63252989   1.0325463   167419.59
  16122.670   -1.701747  0.67832715   1.0327771   167131.59
  16123.702  -1.6998237  0.71702537   1.0330812   167190.59
  16125.079  -1.6961681  0.78942147   1.0335563   167033.59
  16126.112   -1.692837  0.85355607   1.0340368   166771.59
  16127.490  -1.6864863  0.97256328   1.0351167   166626.59
  16128.867  -1.6771622   1.1460531   1.0366196   166530.59
  16129.901  -1.6672717   1.3282771   1.0383461   166372.59
  16131.278  -1.6468939   1.6934708   1.0420666   166053.59
  16132.657  -1.6168029   2.2184454    1.048456   166209.59
  16133.690  -1.5855845   2.7464915   1.0550686   165946.59
  16135.069  -1.5221457   3.7725625   1.0670647   166034.59
  16136.104  -1.4633726   4.6690018   1.0771247   165771.59
  16137.483  -1.3655325   6.0427864    1.091984   165433.59
  16138.861  -1.2523795   7.4941122   1.1083753   165356.59
  16139.897  -1.1587331   8.4077191   1.1212341   165133.59
  16141.276  -1.0341983   8.4183556     1.13823   164924.59
  16142.657 -0.94822022   8.4193826   1.1516477   164904.59
  16143.692 -0.91972224   8.4337027   1.1570138   164624.59
  16145.073 -0.93054374   8.4448281   1.1571647   164407.59
  16146.108 -0.97201937   8.4479051   1.1531356   164347.59
  16147.490  -1.0566239   8.4553711   1.1440907   164202.59
  16148.871   -1.141003   8.4550133   1.1346616   164252.59
  16149.907  -1.1894482   7.9796581   1.1281469   164236.59
  16151.289  -1.2323984   7.4972751   1.1204287   163707.59
  16152.670   -1.247231   7.3597481    1.115238   163627.59
  16153.707  -1.2459263   7.3972146   1.1123416   163540.59
  16155.090  -1.2363674   7.5275659    1.109106   327010.19
  16155.779  -1.2314357   7.5860963   1.1080963   326635.16
  16156.473  -1.2263835   7.6442764   1.1069523   326559.06
  16157.162  -1.2222403   7.6912057   1.1060904   326685.91
  16157.854  -1.2191859   7.7262399   1.1052161   326695.69
  16158.547  -1.2176247   7.7385186   1.1045597   326823.41
  16159.237  -1.2174686   7.7434986   1.1040776   326964.06
  16160.274   -1.219574   7.7190027   1.1036552   326885.66
  16160.968  -1.2215182   7.6950128   1.1036833   327016.19
  16161.659   -1.223423   7.6793229   1.1038096   327129.66
  16162.695  -1.2247932   7.6729289    1.104347   327506.06
  16163.389  -1.2241266   7.6870157   1.1049595   327290.37
  16164.426  -1.2203418   7.7443444   1.1061453   327212.66
  16165.465  -1.2137875   7.8303693   1.1074903   327288.87
  16166.157  -1.2085336   7.8980258   1.1082813   326997.03
  16167.195   -1.198023   8.0358229   1.1095517   326502.09
  16168.234  -1.1857817   8.1875431   1.1105265   326986.12
  16169.271  -1.1721597   8.3550457   1.1114311   327319.09
  16170.311  -1.1572526   8.5317215   1.1123243      327822
  16171.349  -1.1427265   8.6405639   1.1132915   328331.81
  16172.388  -1.1295591   8.6223355   1.1145269   329656.59
  16173.428  -1.1184161   8.6091733   1.1157915   330947.28
  16174.466   -1.110887   8.5954391   1.1168584   332303.94
  16175.506  -1.1086494   8.6082239   1.1177593   332636.53
  16176.545  -1.1122446   8.6195658   1.1185101   333103.03
  16177.932  -1.1259331   8.6303797   1.1193473    333627.5
  16178.971  -1.1398467   8.6318363   1.1198664   334642.87
  16180.012  -1.1553981   8.5337689   1.1203998   335379.22
  16181.399  -1.1739537   8.3336948   1.1208009   335691.47
  16182.440   -1.183036   8.2382431   1.1210405   336626.69
  16183.826  -1.1873761   8.2061484    1.120859   337369.81
  16185.214   -1.182189   8.2864919   1.1204455   338520.91
  16186.254  -1.1740001   8.3935989   1.1198704   339410.91
  16187.644  -1.1602227   8.5625446   1.1185468   340413.87
  16189.030  -1.1487766   8.6897763   1.1168085   340875.75
  16190.419  -1.1435841   8.7129485   1.1146123   341975.59
  16191.809  -1.1468207   8.6989552   1.1124971   342674.34
  16193.197  -1.1577452   8.5670102   1.1105634   343772.03
  16194.587  -1.1737459   8.3843719   1.1091526   344847.69
  16195.976  -1.1907966   8.1927731   1.1082666   346241.25
  16197.366  -1.2060346   8.0193621     1.10746   346836.75
  16198.755  -1.2177173   7.8919612   1.1068695   348252.22
  16200.493   -1.227782   7.7862495   1.1060886   349132.59
  16201.884  -1.2327737   7.7348843   1.1054178   350579.91
  16203.274  -1.2365675   7.6953209   1.1048122   351596.16
  16205.013  -1.2400801   7.6621544   1.1044404   352640.34
  16206.405  -1.2413556   7.6559737   1.1044173    353955.5
  16208.145   -1.239556   7.6919099    1.104785   355290.56
  16209.884  -1.2326777   7.7869315   1.1053667   356745.56
  16211.276  -1.2240879    7.900594   1.1059108    357893.5
  16213.016  -1.2102815   8.0739119   1.1064126   359539.37
  16214.757  -1.1963622   8.2499999   1.1067029   360947.19
  16216.499  -1.1847628   8.3891557   1.1068083   362257.94
  16218.240  -1.1767977   8.4851235   1.1066484   363632.66
  16219.981  -1.1724276    8.542076   1.1065592   364872.28
  16221.725  -1.1702545   8.5739252   1.1064342   366489.84
  16223.468  -1.1687459   8.5989657   1.1063349   367893.34
  16225.210  -1.1668058     8.63326   1.1062207   368719.78
  16226.954  -1.1647252   8.6702816   1.1062042   370198.16
  16228.698  -1.1641692   8.6821111   1.1059203   370750.47
  16230.792   -1.168634   8.6344705   1.1056672   371842.72
  16232.535  -1.1766496   8.5394515   1.1055843   372838.87
  16234.281  -1.1870787   8.4152493   1.1056218      374112
  16236.376   -1.199626   8.2658814   1.1056141   375500.06
  16238.122  -1.2081816   8.1660445   1.1055373   377361.06
  16240.217  -1.2165682   8.0746359   1.1051053      379700
  16242.313  -1.2230832   8.0046171   1.1044182   381465.87
  16244.061  -1.2273837   7.9643306   1.1037537   384313.69
  16246.159  -1.2317374   7.9308634   1.1028945   386770.41
  16248.257  -1.2355601   7.9034455   1.1020398   389249.09
  16250.354  -1.2391816   7.8755621   1.1012481   392685.72
  16252.454  -1.2419171    7.856049   1.1004742   395181.28
  16254.553  -1.2424789   7.8617988   1.0998355   397731.78
  16256.653  -1.2405242   7.9002014   1.0988622   399860.19
  16258.753  -1.2371881   7.9500342   1.0988498   401354.56
  16260.855  -1.2336403   7.9979921   1.0988513   402906.87
  16262.957  -1.2303277   8.0449908    1.098853   404277.09
  16265.059   -1.226655   8.0952852   1.0987201   405745.28
  16267.162  -1.2220004   8.1553532   1.0981559   407690.41
  16269.616  -1.2155514   8.2385199   1.0976579   410024.44
  16271.719  -1.2106406   8.3056816   1.0973099   412252.44
  16274.174   -1.206261   8.3675956   1.0969332   414553.34
  16276.280  -1.2041067   8.4063434   1.0966427   417051.22
  16278.736  -1.2037044   8.4213964   1.0964164      419189
  16280.844  -1.2056883   8.4064031   1.0963513   421959.75
  16283.301  -1.2110296   8.3560361   1.0963538   424722.41
  16285.760  -1.2184122   8.2751979   1.0964524   427268.03
  16288.220  -1.2266276   8.1879611   1.0963568   429619.56
  16290.328  -1.2329663   8.1208561   1.0961545   431931.06
  16292.790  -1.2388326   8.0657002   1.0958714   434336.47
  16295.252  -1.2422235   8.0361628   1.0954714   436622.84
  16297.715  -1.2434667   8.0306913   1.0950766   438878.12
  16300.179  -1.2436956   8.0441854   1.0947734   441492.34
  16302.994  -1.2431732   8.0606234   1.0946326   443516.53
  16305.459  -1.2416906    8.090854    1.094549   446463.62
  16307.925  -1.2394996   8.1291552   1.0944304   448427.69
  16310.392  -1.2371825   8.1677939   1.0941569   451531.66
  16313.211  -1.2358452   8.1939166    1.093739   453670.56
  16315.680  -1.2367098   8.1954202   1.0933523   455994.41
  16318.148    -1.23935   8.1744112   1.0929292   458349.22
  16320.972  -1.2430727   8.1404614   1.0924411   460606.94
  16323.442  -1.2449782   8.1300884   1.0919925   463292.59
  16326.268  -1.2445539   8.1493085   1.0914186   465494.19
  16329.092  -1.2423321    8.189075   1.0908273   468098.72
  16331.564   -1.240553   8.2198073   1.0903568   470637.22
  16334.393  -1.2399438   8.2409221   1.0898264   473559.62
  16337.221  -1.2405425   8.2464141   1.0893449   475884.97
  16340.050  -1.2410045   8.2541861   1.0888736   478115.25
  16342.881  -1.2405948    8.272569   1.0883674   481129.47
  16345.713   -1.239998   8.2910815   1.0878969   483534.62
  16348.544  -1.2407439   8.2918069   1.0874665   486159.72
  16351.378   -1.243645   8.2675674   1.0871311   488735.75
  16354.211  -1.2482262   8.2233807   1.0868996   491632.72
  16357.047  -1.2533202   8.1747784   1.0867691   494278.62
  16360.238  -1.2589226   8.1213058    1.086655   496775.47
  16363.076  -1.2626233   8.0907713   1.0865846   499128.25
  16365.914  -1.2643578   8.0838112   1.0864275   501719.97
  16369.107  -1.2638695   8.1059539    1.086199   504082.62
  16371.948  -1.2620582   8.1399735   1.0858737   507201.22
  16375.146  -1.2599861   8.1821548   1.0853722   509743.75
  16377.989  -1.2590363   8.2031689   1.0848644   512230.22
  16381.188  -1.2589643   8.2206087   1.0842748   515505.62
  16384.389  -1.2590271   8.2348504   1.0838155   518149.97
  16387.234  -1.2584672    8.252435   1.0833093   521232.22
  16390.438   -1.257637   8.2804882   1.0827528   523576.44
  16393.641  -1.2577621   8.2910678    1.082233   526722.62
  16396.848  -1.2594531   8.2852462    1.081695   529370.69
  16400.055  -1.2622748   8.2630738   1.0812675   531795.69
  16403.262  -1.2654743    8.240559   1.0809067   535155.69
  16406.471  -1.2682181   8.2193354   1.0805485   537619.56
  16409.684  -1.2703937   8.2084554   1.0801842   540439.37
  16412.895    -1.27188   8.2060601   1.0797838   543186.19
  16416.107  -1.2727166    8.211289   1.0794209   546090.87
  16419.320  -1.2731926   8.2188234   1.0789646    548821.5
  16422.895    -1.27418   8.2223724   1.0784238   551208.12
  16426.111  -1.2760166   8.2144942   1.0778975   554455.62
  16429.332  -1.2787173   8.1940303   1.0774784   557418.06
  16432.908   -1.281762   8.1727817   1.0769197    559862.5
  16436.129  -1.2834039   8.1692122   1.0764937   562964.81
  16439.711  -1.2839356    8.178399   1.0761117   565020.06
  16443.291  -1.2839166   8.1963038   1.0755934   567793.25
  16446.518  -1.2836194   8.2119816   1.0752565   570667.44
  16450.104  -1.2826787   8.2448856   1.0748832    573557.5
  16453.689  -1.2810282   8.2805638   1.0745432    576323.5
  16457.277  -1.2793301   8.3203045   1.0741172   578841.44
  16460.510  -1.2785201   8.3439158   1.0737665   581799.37
  16464.100   -1.279374   8.3468732   1.0733674   584836.19
  16467.695  -1.2821079   8.3259098   1.0728318   587634.94
  16471.289  -1.2858329   8.2979347   1.0724091   589194.62
  16474.885  -1.2895525   8.2664615   1.0719916   592121.25
  16478.842  -1.2927452   8.2445475   1.0714946   594855.87
  16482.441  -1.2944755   8.2406625   1.0709872   597681.37
  16486.043   -1.295566   8.2441764   1.0705012   600434.81
  16489.646   -1.296542   8.2487467   1.0700141   603857.19
  16493.611  -1.2978004   8.2499433   1.0694659    605957.5
  16497.217  -1.2989011   8.2537306    1.068991   608091.75
  16500.826  -1.2996735    8.258453   1.0685116   611408.94
  16504.797  -1.3002803   8.2717012   1.0680145   613996.12
  16508.406  -1.3010292   8.2789036   1.0675762   616720.19
  16512.381  -1.3021248   8.2807804   1.0671181   618533.19
  16516.357  -1.3033813   8.2827315   1.0665353   621381.12
  16519.975  -1.3044991   8.2841835   1.0660522      623891
  16523.953  -1.3055569   8.2906875   1.0656371   626624.81
  16527.936  -1.3062698   8.2996471   1.0651162   629313.56
  16531.920   -1.306675   8.3119493   1.0646609   631596.25
  16535.906  -1.3070245   8.3256194   1.0641404   633656.87
  16539.531   -1.307778   8.3295431   1.0636956   636109.44
  16543.520  -1.3091204   8.3330482   1.0631523   638752.94
  16547.875  -1.3107946   8.3316973   1.0625987   640733.37
  16551.867  -1.3123282   8.3296907   1.0620682   642867.75
  16555.863  -1.3138054   8.3291554   1.0616233   645543.06
  16559.861  -1.3152765    8.329762   1.0611032   648114.31
  16563.859   -1.316961   8.3244466   1.0606134    650071.5
  16567.863  -1.3188296   8.3203792   1.0601105   652921.62
  16572.230  -1.3208273   8.3140689   1.0595717   655631.69
  16576.234  -1.3226226   8.3095238   1.0590963   657842.69
  16580.607  -1.3242822   8.3094796   1.0585561   659408.62
  16584.617  -1.3253767   8.3120101   1.0580528    661946.5
  16588.992  -1.3262554   8.3214925    1.057509   664911.31
  16593.008  -1.3269153   8.3327629   1.0569959   666790.06
  16597.387  -1.3277625   8.3384793   1.0564248   669374.75
  16601.406  -1.3287016   8.3434815   1.0559279   671305.37
  16605.793   -1.329744   8.3514067   1.0553282   673414.94
  16610.182  -1.3308646   8.3583799   1.0548289   676321.37
  16614.570  -1.3321086   8.3625912   1.0542467   678463.81
  16618.963  -1.3333134   8.3669147   1.0537279   680414.19
  16622.992  -1.3344873   8.3692578   1.0532015    683748.5
  16627.389  -1.3360388    8.369063   1.0526707   685202.75
  16631.789  -1.3377512   8.3682286   1.0520706   686449.94
  16636.191  -1.3394553   8.3648653   1.0515542   690104.06
  16640.963  -1.3411659   8.3635125   1.0509334   691430.06
  16645.369  -1.3423535   8.3680001   1.0503353   693122.06
  16649.779  -1.3433253   8.3765913   1.0498024      696033
  16654.189  -1.3442848   8.3813162   1.0492476   698148.87
  16658.604  -1.3454609   8.3869273   1.0486939   700198.69
  16663.389  -1.3471215   8.3877971   1.0480906   701810.37
  16667.809  -1.3488206   8.3860561   1.0475712   704114.06
  16672.598  -1.3505717   8.3811233   1.0470102   705969.69
  16677.021  -1.3521426   8.3829691   1.0464697   708463.25
  16681.818  -1.3537092   8.3828562   1.0458589   709438.69
  16686.246  -1.3550354   8.3851956   1.0453137   711929.12
  16691.047   -1.356364   8.3921992   1.0447021    713341.5
  16695.480   -1.357433   8.3977906   1.0441574   715221.81
  16700.287  -1.3584016    8.404864    1.043572      717494
  16705.096  -1.3595117   8.4141955   1.0429829   718967.19
  16709.908   -1.360839   8.4179837    1.042436   718938.31
  16714.723  -1.3625169    8.418743   1.0417826   722001.31
  16719.170  -1.3638957   8.4197395   1.0413198   724250.31
  16723.990  -1.3654455   8.4222508   1.0407076   724871.25
  16728.813  -1.3669858   8.4225373   1.0401125   726292.06
  16733.639   -1.368515   8.4249143   1.0395017   727700.87
  16738.840  -1.3700364   8.4284718   1.0389093   728933.62
  16743.670  -1.3713987   8.4317541   1.0382763   729723.25
  16748.506  -1.3728167   8.4355034   1.0377206   731541.87
  16753.342  -1.3741778   8.4349477   1.0370678   733836.44
  16758.182  -1.3755803   8.4394574   1.0364716   735059.87
  16763.396  -1.3771065   8.4437875   1.0358142   735773.31
  16768.244  -1.3786449   8.4454032   1.0352417   737612.62
  16773.094  -1.3802423    8.444898   1.0346639   739255.94
  16778.318  -1.3818745    8.445811   1.0339981   740013.12
  16783.174  -1.3833123    8.448546   1.0333876   741899.31
  16788.404  -1.3847632   8.4547542   1.0327211   742040.44
  16793.641  -1.3862719   8.4588593   1.0321022   743272.44
  16798.504  -1.3876844   8.4636847   1.0315118   745573.44
  16803.746  -1.3890625   8.4665135   1.0308481   744826.31
  16808.990  -1.3905292   8.4704048    1.030236   745800.19
  16813.863  -1.3916837   8.4761057   1.0298762   743835.94
  16819.115  -1.3932528   8.4823436   1.0289451   746885.69
  16824.369  -1.3947694   8.4825083    1.028418   750451.31
  16829.627  -1.3963862   8.4846355     1.02778   749810.94
  16834.887  -1.3980478   8.4875275   1.0271999   751273.44
  16840.152  -1.3995533   8.4925262   1.0265366   750949.94
  16845.420  -1.4010705   8.4959778   1.0259362   752617.31
  16850.691  -1.4025626   8.5009817   1.0252391   753963.62
  16855.965  -1.4041631   8.5024621   1.0246192   755070.94
  16861.244  -1.4057863   8.5027619   1.0239973   755798.12
  16866.525     -1.4074   8.5062172   1.0233625   756505.31
  16872.188  -1.4090386   8.5051638   1.0226362   756477.37
  16877.477  -1.4105283   8.5092657   1.0220137   756805.37
  16882.768   -1.411975   8.5143386   1.0214076   758427.37
  16888.441  -1.4135846   8.5177319    1.020712   758427.25
  16893.740  -1.4150555   8.5207334   1.0201058   759664.12
  16899.041  -1.4165483   8.5248164   1.0194649   759682.87
  16904.727  -1.4180625    8.530105   1.0187947   760827.56
  16910.416  -1.4195728   8.5332858   1.0181272   760366.25
  16915.729  -1.4210437    8.536707   1.0175169   759503.81
  16921.424  -1.4225777   8.5413713   1.0168602   760571.31
  16926.744  -1.4241032   8.5446942    1.016251   761040.81
  16932.447  -1.4257788   8.5460301   1.0155748   760490.19
  16938.154  -1.4274374   8.5486822   1.0149171    760817.5
  16943.865  -1.4290098   8.5517434   1.0142155   760020.81
  16949.582  -1.4305799   8.5564582   1.0135508      759110
  16955.301  -1.4322324   8.5594339   1.0128825   757731.12
  16960.643  -1.4336824   8.5592589   1.0122568   757944.19
  16966.371   -1.435338   8.5639321    1.011757   758912.25
  16972.100  -1.4369843   8.5667848   1.0110043   758067.19
  16977.836  -1.4386516   8.5682942   1.0103264   757465.06
  16983.957  -1.4403731   8.5725295   1.0096332   757609.87
  16989.699  -1.4419792   8.5727761   1.0089859   757709.69
  16995.447  -1.4435237   8.5762166   1.0082582   756565.37
  17001.197  -1.4450504    8.582064   1.0076431      757013
