# XDI/1.0
# Column.1: energy eV
# Column.2: i0
# Column.3: itrans
# Column.4: irefer
# Beamline.name: SSRL 4-3
# Detector.I0: N2 15cm
# Detector.I1: N2 30cm
# Detector.I2: N2 15cm
# Element.edge: K
# Element.symbol: Mn
# Mono.d_spacing: 1.92009
# Mono.name: Si(220)
# Mono.notes: unfocused, detuned 10%
# Sample.formula: Mn3O4
# Sample.name: Mn3O4  haussmanite
# Sample.prep: powder, mixed with B(OH)3
# Sample.reference: Mn filter
# Sample.temperature: room temperature
# Scan.start_time: 1995-06-20 04:30:44
# ///
#    Note: mono d_spacing is nominal!
#     217  E XMU I0
#-------------
#   energy   i0   itrans  irefer
    6520.0030  28737.500000  22035.301701  7653.000476
    6521.0010  28730.500000  22051.300423  7659.996879
    6522.0000  28728.500000  22073.300619  7667.002736
    6523.0000  28727.500000  22079.300754  7659.000959
    6523.9990  28701.500000  22058.300836  7633.000255
    6524.9990  28701.500000  22063.302020  7622.997661
    6525.9990  28691.500000  22052.300150  7599.997449
    6527.0000  28679.500000  22039.301289  7576.999537
    6528.0000  28670.500000  22023.300787  7551.000111
    6529.0020  28666.500000  22033.301064  7546.002808
    6530.0030  28659.500000  22017.301505  7522.003883
    6531.0060  28646.500000  22010.301013  7510.000795
    6532.0080  28647.500000  22000.301973  7486.999971
    6533.0110  28630.500000  21979.301798  7469.000461
    6534.0140  28630.500000  21946.300500  7423.996939
    6535.0170  28615.500000  21888.301786  7370.999608
    6535.3180  28625.500000  21889.299913  7367.002661
    6535.6690  28608.500000  21846.300123  7333.996383
    6536.0210  28605.500000  21832.301799  7320.002043
    6536.3220  28594.500000  21789.301482  7283.001649
    6536.6740  28600.500000  21784.301598  7279.998093
    6537.0250  28592.500000  21721.299994  7227.002409
    6537.3270  28590.500000  21690.300842  7210.001756
    6537.6780  28581.500000  21601.301238  7136.001142
    6537.9790  28580.500000  21547.301043  7107.997561
    6538.3310  28581.500000  21407.301499  7003.997485
    6538.6830  28574.500000  21234.300275  6883.999541
    6538.9840  28576.500000  21058.300422  6777.998160
    6539.3360  28573.500000  20752.300642  6577.002634
    6539.6880  28569.500000  20432.300678  6372.998081
    6539.9900  28569.500000  20234.300627  6250.998526
    6540.3410  28559.500000  20103.300998  6164.000696
    6540.6430  28547.500000  20088.300212  6139.998922
    6540.9950  28548.500000  20129.300609  6147.997969
    6541.3470  28546.500000  20123.301790  6127.001243
    6541.6490  28557.500000  20097.300421  6109.998322
    6542.0010  28553.500000  19997.301122  6040.001864
    6542.3530  28542.500000  19841.301600  5922.997792
    6542.6550  28536.500000  19709.301263  5831.998104
    6543.0070  28536.500000  19511.301653  5669.998593
    6543.3090  28543.500000  19372.300557  5565.997642
    6543.6620  28532.500000  19107.300525  5360.999805
    6544.0140  28527.500000  18834.301106  5160.000799
    6544.3160  28515.500000  18561.300577  4968.002258
    6544.6680  28514.500000  18226.300435  4759.999817
    6545.0210  28508.500000  17855.301884  4554.999807
    6545.3230  28497.500000  17502.301107  4373.000401
    6545.6760  28501.500000  17082.301328  4190.000769
    6545.9780  28498.500000  16693.300217  4019.998198
    6546.3310  28498.500000  16220.300164  3835.000458
    6546.6830  28502.500000  15783.299743  3693.000985
    6546.9860  28484.500000  15397.300159  3548.000409
    6547.3380  28482.500000  15024.299598  3434.000347
    6547.6910  28479.500000  14704.299444  3328.999906
    6547.9940  28481.500000  14511.299963  3292.001221
    6548.3470  28480.500000  14257.299805  3197.000551
    6548.6490  28499.500000  14127.300673  3183.999603
    6549.0020  28489.500000  13911.300540  3112.998776
    6549.3550  28475.500000  13712.300386  3063.001350
    6549.6580  28486.500000  13568.300016  3037.000015
    6550.0110  28478.500000  13367.299874  2983.999207
    6550.3140  28462.500000  13220.300057  2965.001479
    6550.6670  28471.500000  13038.300092  2915.001070
    6551.0200  28481.500000  12927.299993  2929.000837
    6551.3230  28483.500000  12789.299852  2883.998999
    6551.6760  28468.500000  12660.299997  2859.000570
    6551.9790  28464.500000  12596.299707  2865.999333
    6552.3330  28472.500000  12501.299628  2832.001227
    6552.6870  28451.500000  12437.299519  2822.000366
    6552.9890  28460.500000  12404.299682  2820.000779
    6553.3430  28464.500000  12384.299448  2840.001263
    6553.6460  28443.500000  12305.299995  2796.999019
    6554.0000  28430.500000  12230.300408  2766.999479
    6554.3530  28426.500000  12173.299755  2756.999660
    6554.6560  28419.500000  12138.299835  2767.999146
    6555.0100  28419.500000  12053.300577  2737.000272
    6555.3130  28418.500000  11999.300321  2732.001092
    6555.6670  28411.500000  11927.300030  2725.998799
    6556.0210  28409.500000  11836.300185  2703.999833
    6556.3240  28419.500000  11809.299677  2736.999724
    6556.6780  28407.500000  11688.299455  2698.999894
    6556.9820  28410.500000  11646.299559  2721.998886
    6557.3360  28390.500000  11534.299738  2686.999604
    6557.6900  28400.500000  11468.300496  2683.000481
    6557.9930  28393.500000  11423.300189  2687.999256
    6558.3480  28389.500000  11357.300562  2659.999031
    6558.6510  28386.500000  11355.299827  2678.000891
    6559.0050  28382.500000  11325.299966  2644.000624
    6559.3090  28372.500000  11351.299902  2651.000898
    6559.6630  28369.500000  11390.300096  2646.000155
    6560.0180  28373.500000  11458.299459  2646.000649
    6560.3220  28377.500000  11540.300235  2659.000440
    6560.6760  28370.500000  11608.300156  2638.000841
    6560.9790  28369.500000  11716.299880  2671.000241
    6561.3340  28359.500000  11774.299775  2639.000300
    6561.6880  28347.500000  11869.300097  2652.000452
    6561.9930  28356.500000  11942.299541  2652.998954
    6562.3470  28352.500000  12022.299413  2661.000579
    6562.6520  28341.500000  12063.299709  2648.998811
    6563.0060  28338.500000  12107.300335  2634.000002
    6563.3110  28339.500000  12178.300143  2660.999200
    6563.6650  28332.500000  12194.300319  2630.999089
    6564.0200  28333.500000  12243.300019  2645.999430
    6564.3240  28336.500000  12270.300221  2646.999479
    6564.6790  28335.500000  12284.300138  2645.999920
    6564.9830  28342.500000  12308.300164  2655.998973
    6565.3390  28342.500000  12300.299909  2645.998887
    6565.6430  28322.500000  12277.300159  2626.998768
    6565.9980  28320.500000  12246.299675  2606.999189
    6566.3540  28330.500000  12244.300493  2612.998893
    6566.6580  28328.500000  12235.300595  2616.999062
    6567.0130  28321.500000  12203.300324  2602.999499
    6567.3170  28327.500000  12193.300533  2602.000739
    6567.6730  28314.500000  12152.299862  2580.000108
    6567.9770  28320.500000  12159.300182  2598.998878
    6568.3330  28312.500000  12117.300239  2572.999151
    6568.6880  28312.500000  12117.300239  2578.000770
    6568.9930  28309.500000  12105.299566  2567.999876
    6569.3490  28290.500000  12094.299903  2562.999518
    6569.6540  28297.500000  12116.300097  2578.999831
    6570.0090  28294.500000  12100.299925  2555.000040
    6570.3140  28290.500000  12113.300445  2558.000911
    6570.6700  28291.500000  12135.300551  2557.999752
    6571.0250  28272.500000  12129.299850  2533.999794
    6571.3300  28282.500000  12172.299517  2557.000364
    6571.6870  28271.500000  12177.299601  2534.001136
    6571.9910  28287.500000  12223.300545  2556.001213
    6572.3470  28270.500000  12230.299742  2539.000395
    6572.6520  28268.500000  12253.300270  2540.998999
    6573.0080  28263.500000  12283.300040  2547.001079
    6573.3130  28255.500000  12290.299945  2536.000741
    6573.6690  28247.500000  12291.299546  2516.000803
    6573.9750  28245.500000  12308.300262  2515.000124
    6574.3310  28250.500000  12331.300136  2518.999393
    6574.6870  28245.500000  12341.299895  2511.000685
    6574.9930  28243.500000  12358.300501  2517.000570
    6575.3490  28224.500000  12354.300179  2497.999459
    6575.6540  28231.500000  12372.299666  2497.000161
    6576.0110  28224.500000  12379.299656  2491.001143
    6576.3160  28232.500000  12404.300123  2503.000461
    6576.6730  28225.500000  12417.299542  2502.000532
    6576.9780  28218.500000  12413.300158  2484.000813
    6577.3350  28207.500000  12424.299598  2478.999869
    6577.6910  28205.500000  12440.299896  2473.999803
    6577.9970  28208.500000  12473.299890  2488.000438
    6578.3540  28199.500000  12472.299525  2468.000102
    6578.6600  28203.500000  12517.299953  2488.999155
    6579.0160  28197.500000  12522.299583  2468.999534
    6579.3220  28190.500000  12536.300074  2462.001019
    6579.6790  28200.500000  12585.300530  2481.999557
    6579.9850  28195.500000  12607.299741  2481.000710
    6580.7500  28184.500000  12655.299768  2471.000382
    6581.5150  28181.500000  12721.299750  2478.998714
    6582.2800  28160.500000  12753.300321  2459.999353
    6583.0460  28158.500000  12804.300138  2467.999893
    6583.8120  28150.500000  12826.299564  2450.999049
    6584.5260  28144.500000  12863.299461  2465.999627
    6585.2920  28142.500000  12850.300410  2433.000305
    6586.0590  28148.500000  12885.300522  2459.000993
    6586.8250  28134.500000  12851.300099  2426.000414
    6587.5920  28127.500000  12850.299847  2431.001094
    6588.3590  28115.500000  12805.299718  2392.000693
    6589.0750  28111.500000  12803.299937  2392.000261
    6589.8420  28100.500000  12786.299802  2377.000193
    6590.6100  28082.500000  12758.299570  2351.999945
    6591.3770  28082.500000  12758.299570  2351.000557
    6592.1460  28073.500000  12726.299396  2328.000328
    6592.8630  28062.500000  12717.299927  2336.000468
    6593.6310  28065.500000  12682.300551  2320.000414
    6594.3990  28066.500000  12645.299870  2308.000567
    6595.1680  28049.500000  12593.299748  2290.000204
    6595.8860  28036.500000  12564.299668  2296.998872
    6596.6550  28024.500000  12507.299421  2266.000600
    6597.4240  28021.500000  12491.299634  2269.998958
    6598.1940  28008.500000  12442.299724  2234.000525
    6598.9640  28005.500000  12442.299524  2238.000693
    6599.6830  27994.500000  12438.300501  2233.001093
    6600.4530  27996.500000  12434.300241  2219.999126
    6601.2230  27976.500000  12430.300394  2214.999266
    6601.9940  27969.500000  12433.299674  2204.000969
    6602.7130  27974.500000  12465.299961  2219.000304
    6603.4840  27951.500000  12444.299735  2193.000430
    6604.2550  27947.500000  12452.300067  2195.000666
    6604.9760  27941.500000  12456.300247  2191.001048
    6605.7470  27931.500000  12440.299769  2174.000860
    6606.5190  27926.500000  12435.299458  2167.000945
    6607.2910  27917.500000  12433.299693  2166.000398
    6608.0120  27906.500000  12437.300182  2173.000729
    6608.7850  27901.500000  12409.299495  2150.000664
    6609.5570  27896.500000  12405.300400  2147.000674
    6610.2780  27887.500000  12388.299764  2133.000043
    6611.0510  27872.500000  12380.300496  2124.000927
    6611.8250  27862.500000  12376.300560  2120.999413
    6612.5980  27845.500000  12355.299415  2099.999430
    6613.3200  27840.500000  12375.300551  2113.999382
    6614.0940  27839.500000  12364.299846  2090.999697
    6614.8680  27833.500000  12378.299896  2098.000884
    6615.5910  27823.500000  12374.300571  2083.999299
    6616.3650  27816.500000  12384.300352  2081.999166
    6617.1410  27789.500000  12374.300128  2062.999004
    6617.8630  27787.500000  12391.299577  2063.999446
    6618.6390  27782.500000  12407.300211  2064.999586
    6619.4140  27762.500000  12392.299718  2038.000722
    6620.1380  27764.500000  12417.299561  2047.999834
    6620.9140  27748.500000  12410.300145  2026.999832
    6621.6890  27746.500000  12437.299803  2041.000250
    6622.4140  27737.500000  12440.299819  2032.999296
    6623.1900  27716.500000  12428.299670  2010.000767
    6623.9150  27717.500000  12453.300431  2021.000494
    6624.6920  27695.500000  12431.299495  1989.999615
    6625.4690  27689.500000  12449.299795  2001.000649
    6626.1940  27675.500000  12445.300046  1983.000388
    6626.9720  27670.500000  12464.300070  1986.999206
    6627.7490  27656.500000  12468.299483  1981.999893
    6628.4750  27646.500000  12465.299422  1972.999034
    6629.2530  27643.500000  12479.300591  1971.000573
    6629.9790  27624.500000  12473.300004  1957.999640

