# XDI/1.0
# Column.1: energy eV
# Column.2: i0
# Column.3: itrans
# Column.4: irefer
# Beamline.name: SSRL 4-3
# Detector.I0: N2 15cm
# Detector.I1: N2 30cm
# Detector.I2: N2 15cm
# Element.edge: K
# Element.symbol: Mn
# Mono.d_spacing: 1.92009
# Mono.name: Si(220)
# Mono.notes: unfocused, detuned 10%
# Sample.formula: Mn3O4
# Sample.name: Mn3O4  haussmanite
# Sample.prep: powder, mixed with B(OH)3
# Sample.reference: Mn filter
# Sample.temperature: room temperature
# Scan.start_time: 1995-06-20 04:30:44
# ///
#    Note: mono d_spacing is nominal!
#     217  E XMU I0
#-------------
#   energy   i0   itrans  irefer
    6520.0030  29050.500000  22557.301269  8222.002519
    6521.0010  29039.500000  22571.301906  8223.001367
    6522.0000  29024.500000  22566.301308  8206.000877
    6523.0000  29015.500000  22552.300308  8184.998847
    6523.9990  29009.500000  22540.301000  8154.996954
    6524.9990  29001.500000  22541.301591  8147.004004
    6525.9990  28990.500000  22534.299938  8124.998878
    6527.0000  28989.500000  22553.299972  8133.996649
    6528.0000  28977.500000  22539.300328  8108.999277
    6529.0020  28968.500000  22515.301230  8075.002129
    6530.0030  28951.500000  22504.300317  8055.003218
    6531.0060  28943.500000  22472.300317  8010.998851
    6532.0080  28938.500000  22476.301523  8010.999129
    6533.0110  28926.500000  22442.301325  7968.996937
    6534.0140  28907.500000  22406.300173  7935.998469
    6535.0170  28914.500000  22372.300289  7893.997017
    6535.3180  28900.500000  22338.300044  7864.002463
    6535.6690  28899.500000  22335.300165  7863.001423
    6536.0210  28896.500000  22303.300690  7834.998470
    6536.3220  28880.500000  22258.301205  7801.999343
    6536.6740  28898.500000  22252.300369  7786.997773
    6537.0250  28894.500000  22223.301723  7766.001043
    6537.3270  28879.500000  22153.300693  7710.997070
    6537.6780  28882.500000  22096.300037  7666.001598
    6537.9790  28881.500000  22022.301660  7611.997734
    6538.3310  28877.500000  21894.300355  7520.001558
    6538.6830  28868.500000  21717.301245  7396.997949
    6538.9840  28866.500000  21520.301668  7267.997112
    6539.3360  28864.500000  21228.301469  7081.000890
    6539.6880  28862.500000  20901.300349  6865.997800
    6539.9900  28856.500000  20707.301569  6754.003032
    6540.3410  28857.500000  20566.300218  6645.997704
    6540.6430  28847.500000  20546.301192  6620.996810
    6540.9950  28850.500000  20603.301374  6642.997709
    6541.3470  28846.500000  20603.300233  6625.999765
    6541.6490  28840.500000  20572.300793  6607.996782
    6542.0010  28837.500000  20436.301883  6499.003279
    6542.3530  28829.500000  20302.301793  6408.000376
    6542.6550  28819.500000  20156.300942  6299.000319
    6543.0070  28818.500000  19961.300858  6142.000123
    6543.3090  28827.500000  19816.301215  6026.997096
    6543.6620  28819.500000  19565.301023  5829.997907
    6544.0140  28813.500000  19280.301506  5618.001116
    6544.3160  28808.500000  19024.301391  5442.998928
    6544.6680  28799.500000  18672.301562  5218.000204
    6545.0210  28791.500000  18270.300257  4976.002235
    6545.3230  28786.500000  17939.301620  4819.002359
    6545.6760  28785.500000  17494.301304  4604.997782
    6545.9780  28784.500000  17123.300662  4462.000231
    6546.3310  28780.500000  16637.300198  4261.998469
    6546.6830  28761.500000  16150.299385  4075.997847
    6546.9860  28772.500000  15837.299248  4001.998534
    6547.3380  28759.500000  15422.300517  3842.001856
    6547.6910  28749.500000  15102.300388  3741.000450
    6547.9940  28751.500000  14883.299416  3676.998299
    6548.3470  28746.500000  14649.299530  3602.998879
    6548.6490  28735.500000  14466.299793  3546.998639
    6549.0020  28727.500000  14254.300521  3484.998634
    6549.3550  28720.500000  14065.299750  3439.000076
    6549.6580  28706.500000  13906.300043  3408.001258
    6550.0110  28713.500000  13709.299463  3352.999758
    6550.3140  28702.500000  13552.299354  3318.000117
    6550.6670  28696.500000  13377.300314  3282.000891
    6551.0200  28701.500000  13229.300258  3258.998978
    6551.3230  28695.500000  13123.300522  3250.998943
    6551.6760  28692.500000  12992.299874  3220.999981
    6551.9790  28687.500000  12928.299753  3231.000003
    6552.3330  28673.500000  12807.300390  3172.999488
    6552.6870  28671.500000  12750.299965  3163.999203
    6552.9890  28670.500000  12729.299958  3180.999385
    6553.3430  28668.500000  12659.300457  3144.000894
    6553.6460  28656.500000  12623.299759  3145.001269
    6554.0000  28668.500000  12572.299721  3134.999326
    6554.3530  28659.500000  12524.300240  3135.998977
    6554.6560  28660.500000  12471.299547  3128.998446
    6555.0100  28662.500000  12402.300110  3114.999364
    6555.3130  28659.500000  12338.300379  3098.999373
    6555.6670  28656.500000  12257.300192  3081.001460
    6556.0210  28654.500000  12189.299770  3084.999511
    6556.3240  28649.500000  12108.300280  3061.999675
    6556.6780  28646.500000  12029.300376  3068.001498
    6556.9820  28643.500000  11960.300114  3063.000041
    6557.3360  28638.500000  11863.299589  3038.000493
    6557.6900  28632.500000  11791.299586  3037.998579
    6557.9930  28619.500000  11725.300039  3023.000568
    6558.3480  28615.500000  11662.300140  3000.000421
    6558.6510  28612.500000  11650.299470  3004.000455
    6559.0050  28619.500000  11662.299844  3011.000464
    6559.3090  28608.500000  11673.299928  3004.998823
    6559.6630  28608.500000  11705.300536  2990.001163
    6560.0180  28602.500000  11775.300110  2993.999523
    6560.3220  28600.500000  11841.299757  2993.000513
    6560.6760  28595.500000  11921.300557  2982.001630
    6560.9790  28592.500000  12005.300321  2989.001083
    6561.3340  28596.500000  12123.300144  3011.999767
    6561.6880  28580.500000  12185.299511  2989.999640
    6561.9930  28576.500000  12262.299839  3001.999305
    6562.3470  28563.500000  12303.299507  2969.998593
    6562.6520  28558.500000  12368.299597  2980.001235
    6563.0060  28561.500000  12424.300307  2974.001217
    6563.3110  28564.500000  12483.300462  2988.001556
    6563.6650  28559.500000  12531.300198  2992.001407
    6564.0200  28557.500000  12550.300363  2972.001402
    6564.3240  28544.500000  12578.299573  2982.998710
    6564.6790  28541.500000  12565.300275  2950.999919
    6564.9830  28546.500000  12590.299502  2966.001165
    6565.3390  28543.500000  12584.300430  2956.999404
    6565.6430  28543.500000  12590.299537  2964.998835
    6565.9980  28536.500000  12560.300295  2947.001078
    6566.3540  28538.500000  12540.299931  2934.999999
    6566.6580  28532.500000  12528.300039  2937.001281
    6567.0130  28530.500000  12491.299856  2912.999745
    6567.3170  28529.500000  12481.300193  2919.001307
    6567.6730  28517.500000  12431.300599  2886.000212
    6567.9770  28509.500000  12423.300290  2891.000873
    6568.3330  28505.500000  12399.300393  2882.998940
    6568.6880  28507.500000  12390.300026  2876.001354
    6568.9930  28501.500000  12400.299400  2892.998818
    6569.3490  28497.500000  12370.300319  2861.999379
    6569.6540  28490.500000  12371.300303  2861.998905
    6570.0090  28494.500000  12377.300451  2859.000780
    6570.3140  28492.500000  12394.300065  2862.000039
    6570.6700  28486.500000  12410.300222  2862.999326
    6571.0250  28470.500000  12404.299712  2835.000642
    6571.3300  28458.500000  12416.299506  2831.000225
    6571.6870  28477.500000  12460.300145  2844.998675
    6571.9910  28462.500000  12474.300044  2835.999781
    6572.3470  28473.500000  12507.299454  2837.999578
    6572.6520  28474.500000  12528.299556  2835.000320
    6573.0080  28458.500000  12539.299667  2827.999824
    6573.3130  28452.500000  12550.299504  2821.999088
    6573.6690  28449.500000  12572.300057  2822.999538
    6573.9750  28435.500000  12574.300203  2812.998692
    6574.3310  28440.500000  12589.300489  2804.999289
    6574.6870  28439.500000  12606.300440  2807.001197
    6574.9930  28440.500000  12638.299996  2820.000002
    6575.3490  28428.500000  12620.300435  2788.998757
    6575.6540  28422.500000  12634.300599  2789.999412
    6576.0110  28416.500000  12644.300526  2785.999128
    6576.3160  28407.500000  12637.300461  2765.998787
    6576.6730  28413.500000  12663.300482  2773.999341
    6576.9780  28400.500000  12661.299412  2761.000325
    6577.3350  28405.500000  12692.299721  2772.999228
    6577.6910  28398.500000  12698.300008  2758.999535
    6577.9970  28403.500000  12724.300330  2766.999657
    6578.3540  28400.500000  12739.300600  2756.998948
    6578.6600  28403.500000  12775.299461  2771.998602
    6579.0160  28396.500000  12781.300421  2752.999923
    6579.3220  28383.500000  12788.300000  2738.999453
    6579.6790  28374.500000  12806.300220  2731.001125
    6579.9850  28377.500000  12836.299781  2738.000960
    6580.7500  28363.500000  12885.299750  2728.001002
    6581.5150  28356.500000  12936.299582  2720.001089
    6582.2800  28345.500000  12980.299532  2710.000413
    6583.0460  28340.500000  13021.299985  2702.000642
    6583.8120  28328.500000  13050.300561  2695.999924
    6584.5260  28327.500000  13082.299905  2702.999722
    6585.2920  28318.500000  13073.300248  2679.001100
    6586.0590  28304.500000  13079.299671  2680.999848
    6586.8250  28300.500000  13062.299396  2660.000132
    6587.5920  28290.500000  13051.300177  2653.999531
    6588.3590  28288.500000  13021.299785  2626.999871
    6589.0750  28282.500000  13038.299464  2649.998672
    6589.8420  28272.500000  13005.300443  2614.999747
    6590.6100  28255.500000  12989.299835  2604.000533
    6591.3770  28255.500000  12969.300036  2584.001145
    6592.1460  28244.500000  12943.299594  2563.999255
    6592.8630  28237.500000  12931.299388  2568.999907
    6593.6310  28222.500000  12884.300210  2544.999700
    6594.3990  28221.500000  12853.300143  2540.999732
    6595.1680  28204.500000  12790.299598  2510.999898
    6595.8860  28198.500000  12763.300254  2511.999087
    6596.6550  28192.500000  12712.299446  2483.999555
    6597.4240  28187.500000  12689.299982  2481.001024
    6598.1940  28175.500000  12673.299845  2484.000601
    6598.9640  28171.500000  12646.300586  2458.999915
    6599.6830  28149.500000  12628.299562  2441.999797
    6600.4530  28153.500000  12635.299958  2438.001096
    6601.2230  28137.500000  12629.299937  2423.000156
    6601.9940  28136.500000  12653.300191  2433.000005
    6602.7130  28126.500000  12640.299619  2410.998778
    6603.4840  28113.500000  12641.299450  2404.000412
    6604.2550  28114.500000  12638.299640  2389.998785
    6604.9760  28108.500000  12648.300037  2396.000339
    6605.7470  28099.500000  12643.299393  2390.000040
    6606.5190  28089.500000  12624.300163  2365.999469
    6607.2910  28083.500000  12629.300051  2369.998957
    6608.0120  28062.500000  12609.300360  2354.999854
    6608.7850  28049.500000  12585.300507  2339.999010
    6609.5570  28040.500000  12564.300434  2320.000715
    6610.2780  28038.500000  12570.299712  2328.999708
    6611.0510  28042.500000  12563.299386  2315.000299
    6611.8250  28034.500000  12568.300299  2323.000792
    6612.5980  28030.500000  12559.299699  2309.999719
    6613.3200  28017.500000  12562.300624  2309.999516
    6614.0940  28000.500000  12546.299570  2284.999412
    6614.8680  27996.500000  12552.299832  2282.998938
    6615.5910  27970.500000  12550.300172  2276.999536
    6616.3650  27966.500000  12550.299945  2264.000917
    6617.1410  27952.500000  12561.299776  2264.001088
    6617.8630  27938.500000  12554.300371  2243.000023
    6618.6390  27940.500000  12594.300233  2266.000423
    6619.4140  27924.500000  12578.300411  2233.000373
    6620.1380  27917.500000  12597.300341  2242.000466
    6620.9140  27920.500000  12610.300576  2240.000269
    6621.6890  27905.500000  12605.300524  2218.999463
    6622.4140  27897.500000  12612.299380  2215.999358
    6623.1900  27884.500000  12614.299847  2206.999893
    6623.9150  27869.500000  12612.299655  2193.000069
    6624.6920  27865.500000  12612.300457  2177.998998
    6625.4690  27846.500000  12620.299452  2179.999364
    6626.1940  27839.500000  12623.299532  2170.000234
    6626.9720  27829.500000  12626.299609  2158.000091
    6627.7490  27812.500000  12622.299609  2143.999607
    6628.4750  27814.500000  12646.299813  2156.000031
    6629.2530  27800.500000  12643.299691  2145.999489
    6629.9790  27779.500000  12635.299425  2131.000182

