# XDI/1.0
# Column.1: energy eV
# Column.2: i0
# Column.3: itrans
# Column.4: irefer
# Beamline.name: SSRL 4-3
# Detector.I0: N2 15cm
# Detector.I1: N2 30cm
# Detector.I2: N2 15cm
# Element.edge: K
# Element.symbol: Mn
# Mono.d_spacing: 1.92009
# Mono.name: Si(220)
# Mono.notes: unfocused, detuned 10%
# Sample.formula: MnO2-pyr
# Sample.name: MnO2  pyrolusite
# Sample.prep: powder, mixed with B(OH)3
# Sample.reference: Mn filter
# Sample.temperature: room temperature
# Scan.start_time: 1995-06-20 03:12:09
# ///
#    Note: mono d_spacing is nominal!
#     217  E XMU I0
#-------------
#   energy   i0   itrans  irefer
    6520.0030  34266.500000  55318.301355  42517.999356
    6521.0010  34258.500000  55315.303659  42458.002424
    6522.0000  34253.500000  55315.300349  42408.997685
    6523.0000  34260.500000  55373.303264  42443.003726
    6523.9990  34257.500000  55399.303354  42435.001079
    6524.9990  34267.500000  55443.300344  42444.998427
    6525.9990  34267.500000  55455.299572  42406.997463
    6527.0000  34272.500000  55517.299969  42451.000583
    6528.0000  34266.500000  55541.300687  42436.999037
    6529.0020  34266.500000  55586.301807  42456.002335
    6530.0030  34265.500000  55588.298311  42398.997457
    6531.0060  34269.500000  55617.302326  42372.999102
    6532.0080  34261.500000  55617.298378  42321.997010
    6533.0110  34260.500000  55641.303105  42297.001079
    6534.0140  34260.500000  55646.299918  42232.999202
    6535.0170  34267.500000  55657.302060  42158.000773
    6535.3180  34278.500000  55710.299244  42208.998609
    6535.6690  34268.500000  55676.300122  42125.997372
    6536.0210  34278.500000  55715.302254  42151.001118
    6536.3220  34258.500000  55639.301280  42009.001179
    6536.6740  34273.500000  55699.298958  42053.998068
    6537.0250  34265.500000  55662.302200  41957.001375
    6537.3270  34259.500000  55605.298780  41818.996521
    6537.6780  34270.500000  55646.302073  41814.999957
    6537.9790  34256.500000  55563.300909  41623.001191
    6538.3310  34269.500000  55601.303530  41587.001137
    6538.6830  34269.500000  55528.302502  41344.001555
    6538.9840  34260.500000  55434.302845  41080.000082
    6539.3360  34262.500000  55357.301283  40796.000989
    6539.6880  34256.500000  55162.298830  40374.997827
    6539.9900  34261.500000  55016.298339  40133.996766
    6540.3410  34256.500000  54794.302947  39958.999971
    6540.6430  34263.500000  54673.298599  39987.997542
    6540.9950  34261.500000  54508.299516  39960.000839
    6541.3470  34262.500000  54343.301670  39878.999684
    6541.6490  34265.500000  54211.302346  39769.000110
    6542.0010  34259.500000  54022.298608  39515.997840
    6542.3530  34267.500000  53951.299748  39351.999356
    6542.6550  34266.500000  53890.300092  39125.999722
    6543.0070  34274.500000  53940.303130  38917.002502
    6543.3090  34265.500000  53955.299519  38602.997044
    6543.6620  34272.500000  54080.300231  38294.997854
    6544.0140  34271.500000  54168.302085  37888.998958
    6544.3160  34261.500000  54199.299000  37478.999950
    6544.6680  34269.500000  54319.302672  37134.001997
    6545.0210  34261.500000  54326.301025  36631.999979
    6545.3230  34269.500000  54413.301985  36351.001157
    6545.6760  34266.500000  54448.298527  35925.997599
    6545.9780  34251.500000  54408.302373  35487.000963
    6546.3310  34265.500000  54498.300466  35196.998782
    6546.6830  34257.500000  54469.298836  34780.998545
    6546.9860  34255.500000  54424.299481  34453.997751
    6547.3380  34258.500000  54398.300312  34184.000368
    6547.6910  34257.500000  54322.299718  33942.999038
    6547.9940  34239.500000  54167.302330  33656.999668
    6548.3470  34265.500000  54133.299664  33586.997640
    6548.6490  34262.500000  54001.302229  33434.000513
    6549.0020  34253.500000  53821.302673  33265.001865
    6549.3550  34258.500000  53638.302358  33145.001107
    6549.6580  34257.500000  53436.301525  33015.000502
    6550.0110  34253.500000  53166.300653  32880.998879
    6550.3140  34250.500000  52902.302484  32768.001105
    6550.6670  34252.500000  52578.303557  32691.001441
    6551.0200  34250.500000  52184.298945  32585.997226
    6551.3230  34251.500000  51844.303278  32546.002803
    6551.6760  34244.500000  51357.298971  32445.999964
    6551.9790  34241.500000  50945.302578  32405.000870
    6552.3330  34252.500000  50516.299912  32423.998879
    6552.6870  34252.500000  50083.301781  32387.001523
    6552.9890  34254.500000  49795.302035  32384.999686
    6553.3430  34254.500000  49490.302582  32317.001143
    6553.6460  34252.500000  49307.300574  32286.999429
    6554.0000  34258.500000  49162.301942  32283.001072
    6554.3530  34258.500000  49023.300677  32262.001356
    6554.6560  34255.500000  48884.302651  32206.002099
    6555.0100  34258.500000  48738.301972  32189.000960
    6555.3130  34257.500000  48599.299579  32162.999849
    6555.6670  34266.500000  48431.300078  32154.998101
    6556.0210  34262.500000  48214.300196  32102.999291
    6556.3240  34257.500000  48023.300434  32080.998853
    6556.6780  34264.500000  47825.302133  32113.000007
    6556.9820  34256.500000  47584.302514  32044.002223
    6557.3360  34261.500000  47351.300019  32065.999872
    6557.6900  34259.500000  47074.299716  32038.000007
    6557.9930  34261.500000  46851.300859  32036.999677
    6558.3480  34257.500000  46549.302459  31957.002227
    6558.6510  34253.500000  46354.299498  31936.997988
    6559.0050  34260.500000  46195.301190  31967.999508
    6559.3090  34250.500000  46023.298764  31866.999094
    6559.6630  34268.500000  46012.300590  31959.998209
    6560.0180  34267.500000  45968.302511  31948.000066
    6560.3220  34268.500000  45974.300927  31971.000734
    6560.6760  34265.500000  45981.301149  31958.999546
    6560.9790  34265.500000  45992.301192  31951.001209
    6561.3340  34263.500000  46019.298800  31946.998975
    6561.6880  34256.500000  46020.301115  31914.001364
    6561.9930  34238.500000  45999.302894  31858.000447
    6562.3470  34247.500000  46074.302696  31942.000355
    6562.6520  34238.500000  46074.301432  31933.999010
    6563.0060  34241.500000  46098.299343  31942.000016
    6563.3110  34248.500000  46147.300635  31995.999141
    6563.6650  34243.500000  46139.299274  31939.997537
    6564.0200  34244.500000  46191.299963  31971.000830
    6564.3240  34228.500000  46164.302690  31863.002178
    6564.6790  34238.500000  46277.299158  31943.999110
    6564.9830  34224.500000  46258.302523  31830.000655
    6565.3390  34234.500000  46363.300442  31879.000693
    6565.6430  34235.500000  46403.301857  31857.999666
    6565.9980  34236.500000  46468.303101  31866.000502
    6566.3540  34237.500000  46523.298708  31889.998519
    6566.6580  34224.500000  46478.301155  31767.001485
    6567.0130  34228.500000  46522.302924  31800.999826
    6567.3170  34224.500000  46518.298991  31762.999095
    6567.6730  34219.500000  46530.302035  31749.000897
    6567.9770  34214.500000  46535.303092  31719.001916
    6568.3330  34218.500000  46590.303193  31731.999938
    6568.6880  34223.500000  46654.302043  31736.001885
    6568.9930  34216.500000  46678.299779  31698.998390
    6569.3490  34220.500000  46766.301011  31723.000312
    6569.6540  34220.500000  46812.299569  31707.000095
    6570.0090  34214.500000  46846.300033  31649.999438
    6570.3140  34220.500000  46908.302234  31681.999475
    6570.6700  34216.500000  46938.300495  31656.999705
    6571.0250  34223.500000  47007.301589  31703.000919
    6571.3300  34211.500000  46974.300057  31622.998132
    6571.6870  34226.500000  47056.301913  31724.999500
    6571.9910  34212.500000  46995.298950  31612.998292
    6572.3470  34220.500000  47040.299933  31672.999897
    6572.6520  34219.500000  47027.298724  31645.999960
    6573.0080  34215.500000  47008.298867  31621.000030
    6573.3130  34224.500000  47021.298652  31651.997598
    6573.6690  34218.500000  46972.303158  31592.000300
    6573.9750  34228.500000  46998.299978  31658.998797
    6574.3310  34225.500000  46954.299625  31619.998371
    6574.6870  34225.500000  46935.301065  31620.001533
    6574.9930  34217.500000  46877.302782  31547.000372
    6575.3490  34226.500000  46896.300785  31608.001413
    6575.6540  34226.500000  46886.298871  31608.997081
    6576.0110  34221.500000  46846.298660  31542.997073
    6576.3160  34226.500000  46869.300981  31593.000656
    6576.6730  34226.500000  46864.300293  31579.999653
    6576.9780  34220.500000  46839.299324  31536.997477
    6577.3350  34220.500000  46853.301683  31539.000140
    6577.6910  34223.500000  46851.299352  31509.999585
    6577.9970  34223.500000  46866.298854  31508.997583
    6578.3540  34221.500000  46888.301132  31496.999947
    6578.6600  34218.500000  46904.298959  31482.997352
    6579.0160  34227.500000  46964.298868  31496.997207
    6579.3220  34234.500000  47038.302072  31557.999524
    6579.6790  34226.500000  47070.303245  31527.002405
    6579.9850  34218.500000  47070.300217  31451.998722
    6580.7500  34222.500000  47222.299237  31498.997581
    6581.5150  34218.500000  47306.302577  31451.001709
    6582.2800  34224.500000  47474.302368  31529.000146
    6583.0460  34217.500000  47572.302380  31478.000629
    6583.8120  34213.500000  47691.300558  31450.000625
    6584.5260  34219.500000  47830.301298  31465.998716
    6585.2920  34212.500000  47919.301358  31386.999370
    6586.0590  34218.500000  48073.300195  31413.000425
    6586.8250  34208.500000  48140.299376  31313.999039
    6587.5920  34211.500000  48282.300531  31359.001180
    6588.3590  34198.500000  48302.300236  31213.000273
    6589.0750  34204.500000  48422.303048  31253.001337
    6589.8420  34200.500000  48469.302715  31207.001099
    6590.6100  34192.500000  48491.301036  31138.999032
    6591.3770  34192.500000  48557.298926  31181.997397
    6592.1460  34196.500000  48556.302438  31129.001216
    6592.8630  34200.500000  48548.299280  31092.000388
    6593.6310  34205.500000  48562.301949  31088.001779
    6594.3990  34193.500000  48510.301019  31010.001067
    6595.1680  34191.500000  48500.299596  30987.000418
    6595.8860  34178.500000  48434.302470  30860.001373
    6596.6550  34190.500000  48500.302144  30934.999960
    6597.4240  34186.500000  48481.298677  30862.999193
    6598.1940  34189.500000  48525.303298  30891.000001
    6598.9640  34181.500000  48519.300248  30831.998470
    6599.6830  34172.500000  48512.302571  30762.002000
    6600.4530  34172.500000  48551.302726  30763.001781
    6601.2230  34165.500000  48545.299046  30707.998649
    6601.9940  34173.500000  48598.301897  30748.001182
    6602.7130  34157.500000  48541.299964  30641.998907
    6603.4840  34167.500000  48590.298899  30703.998790
    6604.2550  34160.500000  48551.301695  30634.000079
    6604.9760  34161.500000  48525.303278  30601.002779
    6605.7470  34156.500000  48489.302405  30570.002102
    6606.5190  34147.500000  48371.300690  30419.999698
    6607.2910  34159.500000  48426.298898  30535.997446
    6608.0120  34151.500000  48388.302901  30501.001188
    6608.7850  34155.500000  48384.302240  30515.001868
    6609.5570  34150.500000  48333.303050  30447.001829
    6610.2780  34152.500000  48335.302281  30457.001126
    6611.0510  34139.500000  48277.300038  30363.000298
    6611.8250  34139.500000  48273.302843  30357.001162
    6612.5980  34127.500000  48208.300265  30228.999467
    6613.3200  34132.500000  48241.300431  30312.998368
    6614.0940  34129.500000  48222.302087  30294.001207
    6614.8680  34121.500000  48163.303077  30225.002649
    6615.5910  34119.500000  48130.302500  30212.002172
    6616.3650  34118.500000  48091.298634  30204.999564
    6617.1410  34121.500000  48062.299910  30224.999626
    6617.8630  34116.500000  47989.303303  30181.001537
    6618.6390  34101.500000  47899.299093  30095.999971
    6619.4140  34105.500000  47865.302183  30081.999259
    6620.1380  34090.500000  47783.302247  29974.000416
    6620.9140  34106.500000  47848.299636  30063.998175
    6621.6890  34096.500000  47822.299131  30001.999809
    6622.4140  34091.500000  47849.299886  30006.000741
    6623.1900  34074.500000  47809.301086  29883.999517
    6623.9150  34082.500000  47891.299835  29953.999536
    6624.6920  34071.500000  47880.300545  29869.000133
    6625.4690  34070.500000  47932.300411  29882.998518
    6626.1940  34047.500000  47887.298798  29753.997969
    6626.9720  34052.500000  47956.298647  29787.997721
    6627.7490  34047.500000  47997.302358  29777.000745
    6628.4750  34039.500000  48004.301189  29719.001281
    6629.2530  34038.500000  48065.301629  29744.000177
    6629.9790  34020.500000  48061.300223  29670.998406

