# XDI/1.0
# Column.1: energy eV
# Column.2: i0
# Column.3: itrans
# Column.4: irefer
# Beamline.name: SSRL 4-3
# Detector.I0: N2 15cm
# Detector.I1: N2 30cm
# Detector.I2: N2 15cm
# Element.edge: K
# Element.symbol: Mn
# Mono.d_spacing: 1.92009
# Mono.name: Si(220)
# Mono.notes: unfocused, detuned 10%
# Sample.formula: MnO2-pyr
# Sample.name: MnO2  pyrolusite
# Sample.prep: powder, mixed with B(OH)3
# Sample.reference: Mn filter
# Sample.temperature: room temperature
# Scan.start_time: 1995-06-20 03:12:09
# ///
#    Note: mono d_spacing is nominal!
#     217  E XMU I0
#-------------
#   energy   i0   itrans  irefer
    6520.0030  34121.500000  55043.301977  39994.001651
    6521.0010  34118.500000  55063.301467  39980.001203
    6522.0000  34096.500000  54999.299002  39845.996651
    6523.0000  34111.500000  55110.302166  39963.001790
    6523.9990  34111.500000  55138.299798  39944.998518
    6524.9990  34121.500000  55187.301644  39966.998822
    6525.9990  34121.500000  55186.302763  39907.001478
    6527.0000  34119.500000  55215.298872  39897.998844
    6528.0000  34109.500000  55201.301884  39834.000753
    6529.0020  34114.500000  55229.300237  39811.997590
    6530.0030  34129.500000  55316.299556  39878.000780
    6531.0060  34121.500000  55293.302227  39785.999703
    6532.0080  34127.500000  55361.300952  39824.998212
    6533.0110  34125.500000  55349.299620  39751.998057
    6534.0140  34123.500000  55350.300958  39685.000554
    6535.0170  34130.500000  55379.301936  39644.000005
    6535.3180  34122.500000  55344.300992  39569.000290
    6535.6690  34139.500000  55427.301082  39654.001823
    6536.0210  34131.500000  55390.301295  39566.998973
    6536.3220  34133.500000  55395.302998  39540.999940
    6536.6740  34132.500000  55386.302150  39479.000972
    6537.0250  34135.500000  55397.302348  39452.002185
    6537.3270  34132.500000  55367.302370  39374.000377
    6537.6780  34122.500000  55327.301834  39260.000075
    6537.9790  34122.500000  55300.303168  39164.999997
    6538.3310  34126.500000  55292.302779  39048.001952
    6538.6830  34127.500000  55246.302269  38860.002602
    6538.9840  34119.500000  55153.299318  38592.998282
    6539.3360  34121.500000  55054.300728  38285.000367
    6539.6880  34121.500000  54897.300942  37935.998286
    6539.9900  34105.500000  54686.302220  37630.999353
    6540.3410  34114.500000  54532.301482  37554.999576
    6540.6430  34095.500000  54296.301418  37419.999623
    6540.9950  34115.500000  54215.298376  37504.998839
    6541.3470  34103.500000  53990.300946  37342.000738
    6541.6490  34108.500000  53891.303515  37279.002038
    6542.0010  34110.500000  53748.300870  37096.998181
    6542.3530  34121.500000  53672.302383  36932.000009
    6542.6550  34115.500000  53613.302940  36714.002671
    6543.0070  34111.500000  53613.299958  36442.999079
    6543.3090  34116.500000  53690.299258  36222.998625
    6543.6620  34110.500000  53739.298783  35807.997230
    6544.0140  34113.500000  53858.298750  35465.996783
    6544.3160  34111.500000  53911.303634  35100.001417
    6544.6680  34116.500000  54015.299917  34736.000872
    6545.0210  34113.500000  54039.302201  34277.000859
    6545.3230  34133.500000  54135.302073  33992.000133
    6545.6760  34132.500000  54170.301181  33569.999952
    6545.9780  34121.500000  54157.300491  33186.998379
    6546.3310  34131.500000  54235.301280  32885.999219
    6546.6830  34119.500000  54176.301350  32451.000293
    6546.9860  34134.500000  54186.299679  32197.000725
    6547.3380  34139.500000  54156.303331  31933.000442
    6547.6910  34132.500000  54071.303437  31683.001589
    6547.9940  34114.500000  53914.303504  31410.000009
    6548.3470  34116.500000  53819.299964  31268.998337
    6548.6490  34121.500000  53721.300711  31159.998851
    6549.0020  34051.500000  53190.301893  30495.001486
    6549.3550  34118.500000  53361.299735  30882.999644
    6549.6580  34111.500000  53116.301153  30690.000068
    6550.0110  34131.500000  52948.302424  30706.001115
    6550.3140  34109.500000  52604.298549  30482.999594
    6550.6670  34122.500000  52341.302950  30481.001587
    6551.0200  34122.500000  51952.300044  30392.999149
    6551.3230  34108.500000  51538.299974  30258.000235
    6551.6760  34120.500000  51141.299321  30286.999974
    6551.9790  34114.500000  50715.298663  30206.997833
    6552.3330  34124.500000  50272.298582  30213.997228
    6552.6870  34126.500000  49858.301323  30192.000603
    6552.9890  34124.500000  49552.301186  30168.001250
    6553.3430  34119.500000  49244.302141  30099.999898
    6553.6460  34115.500000  49042.301739  30038.999672
    6554.0000  34128.500000  48932.300109  30090.999658
    6554.3530  34120.500000  48747.303187  29998.001917
    6554.6560  34125.500000  48659.302613  30021.002061
    6555.0100  34119.500000  48466.302777  29937.999756
    6555.3130  34124.500000  48354.302349  29956.001887
    6555.6670  34130.500000  48198.302986  29966.000212
    6556.0210  34128.500000  47984.301837  29929.000070
    6556.3240  34127.500000  47786.301116  29880.001513
    6556.6780  34134.500000  47589.302712  29917.000668
    6556.9820  34123.500000  47352.300170  29849.998706
    6557.3360  34126.500000  47091.301789  29825.001211
    6557.6900  34136.500000  46843.300198  29836.998776
    6557.9930  34138.500000  46614.300870  29822.999158
    6558.3480  34134.500000  46349.300631  29807.001126
    6558.6510  34131.500000  46137.298989  29766.997446
    6559.0050  34135.500000  45990.299715  29801.999795
    6559.3090  34133.500000  45871.302641  29787.001490
    6559.6630  34138.500000  45806.301989  29808.001962
    6560.0180  34132.500000  45752.302100  29783.001449
    6560.3220  34124.500000  45695.302441  29715.000968
    6560.6760  34140.500000  45780.299783  29813.999433
    6560.9790  34123.500000  45717.300660  29696.001185
    6561.3340  34141.500000  45832.303227  29821.000293
    6561.6880  34130.500000  45827.301341  29773.999501
    6561.9930  34132.500000  45862.299118  29798.999216
    6562.3470  34134.500000  45894.298930  29813.997650
    6562.6520  34127.500000  45890.302071  29793.999402
    6563.0060  34129.500000  45909.300093  29805.999923
    6563.3110  34122.500000  45906.301294  29780.999538
    6563.6650  34134.500000  45982.302906  29852.001904
    6564.0200  34126.500000  45973.300708  29784.999926
    6564.3240  34125.500000  45997.300290  29763.999877
    6564.6790  34130.500000  46075.299909  29781.997871
    6564.9830  34129.500000  46133.299122  29788.997471
    6565.3390  34133.500000  46209.301396  29790.001192
    6565.6430  34122.500000  46218.303106  29735.002604
    6565.9980  34131.500000  46312.301250  29771.998722
    6566.3540  34127.500000  46321.300574  29712.998527
    6566.6580  34123.500000  46330.301010  29692.001403
    6567.0130  34117.500000  46301.300494  29610.000208
    6567.3170  34128.500000  46372.300656  29679.999823
    6567.6730  34126.500000  46366.300294  29631.998522
    6567.9770  34118.500000  46371.301196  29611.001340
    6568.3330  34124.500000  46429.298882  29615.998387
    6568.6880  34127.500000  46493.299754  29621.999478
    6568.9930  34125.500000  46540.300069  29620.998109
    6569.3490  34117.500000  46574.302901  29572.002408
    6569.6540  34115.500000  46630.299163  29580.998909
    6570.0090  34106.500000  46649.302805  29514.001621
    6570.3140  34112.500000  46717.301882  29548.000779
    6570.6700  34112.500000  46762.302960  29548.000779
    6571.0250  34121.500000  46821.302648  29578.001254
    6571.3300  34109.500000  46775.302434  29478.999777
    6571.6870  34116.500000  46849.303324  29564.000985
    6571.9910  34105.500000  46801.299124  29480.999220
    6572.3470  34118.500000  46862.302105  29558.000721
    6572.6520  34104.500000  46780.303100  29439.000427
    6573.0080  34112.500000  46822.300041  29507.999204
    6573.3130  34113.500000  46797.299599  29477.999350
    6573.6690  34122.500000  46822.300262  29533.998485
    6573.9750  34119.500000  46791.299071  29521.997645
    6574.3310  34118.500000  46776.299756  29518.000366
    6574.6870  34124.500000  46786.298894  29567.997218
    6574.9930  34115.500000  46714.299945  29480.998185
    6575.3490  34126.500000  46741.303105  29535.000231
    6575.6540  34111.500000  46660.298823  29441.998366
    6576.0110  34117.500000  46687.303270  29490.000776
    6576.3160  34093.500000  46551.300931  29294.000978
    6576.6730  34094.500000  46609.299484  29391.998603
    6576.9780  34092.500000  46603.303014  29387.000560
    6577.3350  34099.500000  46643.301267  29423.001177
    6577.6910  34099.500000  46660.301183  29425.999534
    6577.9970  34089.500000  46634.299865  29363.999552
    6578.3540  34093.500000  46681.299723  29382.000245
    6578.6600  34084.500000  46649.300638  29297.000404
    6579.0160  34098.500000  46757.300083  29392.998363
    6579.3220  34081.500000  46728.301786  29295.001819
    6579.6790  34090.500000  46822.303181  29358.002101
    6579.9850  34082.500000  46820.299369  29295.000090
    6580.7500  34079.500000  46957.302459  29321.001397
    6581.5150  34079.500000  47072.300606  29329.998460
    6582.2800  34068.500000  47136.299947  29248.000247
    6583.0460  34079.500000  47326.303036  29335.002585
    6583.8120  34075.500000  47442.300720  29297.999903
    6584.5260  34070.500000  47526.303099  29238.002168
    6585.2920  34070.500000  47647.301997  29204.999408
    6586.0590  34082.500000  47824.298927  29272.999022
    6586.8250  34072.500000  47918.301434  29231.000507
    6587.5920  34059.500000  47956.300748  29114.999705
    6588.3590  34069.500000  48113.300468  29180.000374
    6589.0750  34061.500000  48162.302738  29130.001259
    6589.8420  34052.500000  48185.302701  29044.000866
    6590.6100  34061.500000  48278.301441  29079.001454
    6591.3770  34058.500000  48292.300322  29035.999852
    6592.1460  34056.500000  48295.303027  28998.001393
    6592.8630  34052.500000  48266.302740  28934.002232
    6593.6310  34048.500000  48246.301826  28897.999717
    6594.3990  34049.500000  48254.300252  28903.998681
    6595.1680  34035.500000  48191.299552  28807.999170
    6595.8860  34033.500000  48211.300011  28821.998537
    6596.6550  34029.500000  48192.301842  28760.001801
    6597.4240  34016.500000  48133.302683  28643.000453
    6598.1940  34033.500000  48240.303008  28747.000566
    6598.9640  34023.500000  48237.299114  28704.998241
    6599.6830  34010.500000  48180.298875  28559.998943
    6600.4530  34024.500000  48280.302095  28655.000153
    6601.2230  34014.500000  48249.299247  28553.999227
    6601.9940  34015.500000  48274.298800  28561.998288
    6602.7130  34017.500000  48299.301463  28568.999549
    6603.4840  34014.500000  48289.300013  28546.998645
    6604.2550  34019.500000  48299.301054  28551.000796
    6604.9760  34008.500000  48243.301705  28489.001297
    6605.7470  34004.500000  48223.302992  28478.000269
    6606.5190  33992.500000  48077.299029  28286.999346
    6607.2910  34002.500000  48145.301419  28422.001653
    6608.0120  33985.500000  48059.299903  28319.000158
    6608.7850  33986.500000  48052.299321  28333.999716
    6609.5570  33990.500000  48065.303401  28361.000336
    6610.2780  33981.500000  48003.300016  28278.999411
    6611.0510  33985.500000  48022.298881  28307.997533
    6611.8250  33976.500000  47979.301981  28235.001865
    6612.5980  33978.500000  47973.303143  28208.001298
    6613.3200  33977.500000  47954.303203  28193.000583
    6614.0940  33977.500000  47942.301743  28190.001007
    6614.8680  33972.500000  47908.300323  28158.998719
    6615.5910  33965.500000  47834.302305  28082.000053
    6616.3650  33966.500000  47829.301069  28128.000655
    6617.1410  33960.500000  47755.301385  28087.001368
    6617.8630  33959.500000  47712.300565  28080.998514
    6618.6390  33952.500000  47637.301009  28033.000038
    6619.4140  33950.500000  47604.299436  28028.999803
    6620.1380  33936.500000  47520.302051  27920.001492
    6620.9140  33937.500000  47529.301650  27927.000974
    6621.6890  33934.500000  47541.299479  27927.997939
    6622.4140  33923.500000  47518.299504  27849.997861
    6623.1900  33929.500000  47597.300263  27906.999694
    6623.9150  33909.500000  47547.300289  27780.999370
    6624.6920  33906.500000  47591.303093  27791.000254
    6625.4690  33894.500000  47576.301011  27696.998761
    6626.1940  33892.500000  47615.300610  27694.998878
    6626.9720  33874.500000  47605.300922  27625.998913
    6627.7490  33875.500000  47649.299986  27606.999323
    6628.4750  33880.500000  47722.301611  27654.001236
    6629.2530  33860.500000  47701.299623  27562.998612
    6629.9790  33861.500000  47752.302028  27566.001282

