# XDI/1.0
# Column.1: energy eV
# Column.2: i0
# Column.3: itrans
# Column.4: irefer
# Beamline.name: SSRL 4-3
# Detector.I0: N2 15cm
# Detector.I1: N2 30cm
# Detector.I2: N2 15cm
# Element.edge: K
# Element.symbol: Mn
# Mono.d_spacing: 1.92009
# Mono.name: Si(220)
# Mono.notes: unfocused, detuned 10%
# Sample.formula: MnO2-pyr
# Sample.name: MnO2  pyrolusite
# Sample.prep: powder, mixed with B(OH)3
# Sample.reference: Mn filter
# Sample.temperature: room temperature
# Scan.start_time: 1995-06-20 03:12:09
# ///
#    Note: mono d_spacing is nominal!
#     217  E XMU I0
#-------------
#   energy   i0   itrans  irefer
    6520.0030  34186.500000  55161.300488  41196.999634
    6521.0010  34175.500000  55133.301310  41117.002130
    6522.0000  34170.500000  55142.299008  41083.997840
    6523.0000  34169.500000  55166.298549  41072.998438
    6523.9990  34171.500000  55204.300802  41079.999107
    6524.9990  34183.500000  55262.301738  41113.998989
    6525.9990  34183.500000  55294.302346  41105.000119
    6527.0000  34185.500000  55333.298909  41114.998320
    6528.0000  34176.500000  55312.303675  41031.003890
    6529.0020  34188.500000  55384.298345  41073.996398
    6530.0030  34184.500000  55390.302038  41027.001576
    6531.0060  34183.500000  55399.300732  40980.001176
    6532.0080  34183.500000  55436.303197  40976.001723
    6533.0110  34184.500000  55442.299149  40912.998527
    6534.0140  34187.500000  55491.301580  40929.000898
    6535.0170  34179.500000  55459.301705  40796.999994
    6535.3180  34187.500000  55493.299303  40817.996718
    6535.6690  34192.500000  55499.300761  40789.998713
    6536.0210  34188.500000  55467.298463  40705.997089
    6536.3220  34187.500000  55472.299064  40680.000366
    6536.6740  34186.500000  55471.303296  40638.001619
    6537.0250  34190.500000  55503.302734  40643.000336
    6537.3270  34176.500000  55423.299469  40484.997500
    6537.6780  34189.500000  55475.300152  40498.999876
    6537.9790  34187.500000  55431.303549  40364.003293
    6538.3310  34195.500000  55423.298532  40257.996561
    6538.6830  34191.500000  55358.298473  40030.996846
    6538.9840  34182.500000  55259.303602  39745.002789
    6539.3360  34193.500000  55188.299626  39473.997639
    6539.6880  34192.500000  55006.299871  39072.997280
    6539.9900  34183.500000  54815.301066  38780.000841
    6540.3410  34191.500000  54668.303193  38723.001410
    6540.6430  34187.500000  54498.298456  38682.998187
    6540.9950  34201.500000  54376.300304  38706.997698
    6541.3470  34191.500000  54181.302422  38587.001659
    6541.6490  34192.500000  54062.301974  38501.000261
    6542.0010  34186.500000  53879.298366  38271.998889
    6542.3530  34195.500000  53802.302113  38095.000630
    6542.6550  34182.500000  53704.302385  37815.002567
    6543.0070  34183.500000  53733.302711  37584.001638
    6543.3090  34182.500000  53769.302413  37299.000021
    6543.6620  34188.500000  53880.300580  36975.000799
    6544.0140  34189.500000  53980.300766  36607.999401
    6544.3160  34187.500000  54052.299125  36263.998787
    6544.6680  34178.500000  54102.299600  35815.998942
    6545.0210  34179.500000  54159.302453  35388.002460
    6545.3230  34185.500000  54225.299369  35081.000147
    6545.6760  34188.500000  54264.298809  34667.000153
    6545.9780  34176.500000  54237.300529  34238.001199
    6546.3310  34194.500000  54330.301633  33952.001697
    6546.6830  34180.500000  54267.298395  33499.998901
    6546.9860  34178.500000  54244.298570  33218.999669
    6547.3380  34179.500000  54210.301185  32949.001241
    6547.6910  34180.500000  54150.299590  32726.999369
    6547.9940  34175.500000  54060.301236  32540.999361
    6548.3470  34174.500000  53930.298912  32333.998181
    6548.6490  34172.500000  53797.302529  32189.001538
    6549.0020  34176.500000  53650.300672  32061.001128
    6549.3550  34173.500000  53458.298887  31935.000093
    6549.6580  34166.500000  53241.301112  31789.998631
    6550.0110  34162.500000  52965.298364  31642.999879
    6550.3140  34172.500000  52753.299863  31607.999176
    6550.6670  34166.500000  52382.299154  31458.000284
    6551.0200  34176.500000  52055.303037  31450.999819
    6551.3230  34172.500000  51674.303502  31352.002074
    6551.6760  34177.500000  51223.301341  31317.001620
    6551.9790  34163.500000  50796.300274  31241.999353
    6552.3330  34172.500000  50349.300537  31241.999489
    6552.6870  34168.500000  49892.299240  31160.998570
    6552.9890  34163.500000  49565.301515  31096.000906
    6553.3430  34179.500000  49336.301516  31146.000719
    6553.6460  34169.500000  49113.302918  31051.000600
    6554.0000  34182.500000  49014.301222  31114.001199
    6554.3530  34171.500000  48831.303058  31030.002633
    6554.6560  34174.500000  48705.299912  30994.998474
    6555.0100  34177.500000  48566.302821  30989.000930
    6555.3130  34175.500000  48416.298993  30951.000133
    6555.6670  34183.500000  48260.299759  30959.000714
    6556.0210  34181.500000  48052.302929  30925.001353
    6556.3240  34179.500000  47878.298780  30921.998283
    6556.6780  34177.500000  47628.300497  30872.000265
    6556.9820  34185.500000  47460.300259  30921.999161
    6557.3360  34182.500000  47180.299274  30867.999031
    6557.6900  34179.500000  46892.303108  30826.001832
    6557.9930  34176.500000  46651.299038  30787.999067
    6558.3480  34177.500000  46409.302907  30799.000336
    6558.6510  34176.500000  46217.299377  30790.997965
    6559.0050  34176.500000  46017.302790  30760.000884
    6559.3090  34181.500000  45935.298960  30787.998718
    6559.6630  34183.500000  45849.301838  30774.999983
    6560.0180  34182.500000  45811.301449  30776.001593
    6560.3220  34175.500000  45761.302623  30709.001285
    6560.6760  34183.500000  45831.300352  30799.999431
    6560.9790  34170.500000  45817.302276  30754.000973
    6561.3340  34175.500000  45865.298771  30785.999135
    6561.6880  34171.500000  45885.302707  30773.002498
    6561.9930  34172.500000  45903.300787  30762.998705
    6562.3470  34193.500000  45986.301908  30848.001515
    6562.6520  34176.500000  45923.302748  30734.001222
    6563.0060  34189.500000  46013.299735  30849.997811
    6563.3110  34202.500000  46031.301884  30835.000998
    6563.6650  34196.500000  46029.302274  30791.001853
    6564.0200  34198.500000  46077.302882  30814.001581
    6564.3240  34195.500000  46086.301414  30771.999104
    6564.6790  34202.500000  46184.301262  30832.999871
    6564.9830  34197.500000  46164.303226  30709.002172
    6565.3390  34204.500000  46304.299306  30815.999345
    6565.6430  34199.500000  46328.300862  30771.001110
    6565.9980  34208.500000  46425.299162  30827.999485
    6566.3540  34201.500000  46428.300727  30762.001253
    6566.6580  34199.500000  46426.300700  30720.998902
    6567.0130  34206.500000  46483.298893  30755.999610
    6567.3170  34190.500000  46421.301025  30632.999034
    6567.6730  34202.500000  46491.301976  30699.001843
    6567.9770  34116.500000  46096.302386  30076.000803
    6568.3330  34191.500000  46512.299136  30622.997383
    6568.6880  34187.500000  46542.300171  30586.999942
    6568.9930  34187.500000  46608.302019  30603.001127
    6569.3490  34160.500000  46527.303197  30369.001656
    6569.6540  34177.500000  46675.300746  30517.000837
    6570.0090  34192.500000  46812.301539  30622.000517
    6570.3140  34184.500000  46811.299915  30543.998716
    6570.6700  34192.500000  46888.302082  30597.001739
    6571.0250  34189.500000  46915.301460  30583.999480
    6571.3300  34179.500000  46878.303156  30498.001264
    6571.6870  34196.500000  46977.299687  30612.998295
    6571.9910  34182.500000  46910.302329  30501.001441
    6572.3470  34202.500000  47002.300194  30628.000538
    6572.6520  34181.500000  46905.299370  30485.000082
    6573.0080  34199.500000  46990.301252  30620.999265
    6573.3130  34190.500000  46944.301651  30564.998906
    6573.6690  34200.500000  46972.299886  30619.999192
    6573.9750  34182.500000  46868.298897  30483.998823
    6574.3310  34192.500000  46895.303028  30558.000142
    6574.6870  34186.500000  46841.301728  30506.001334
    6574.9930  34182.500000  46810.302482  30485.001763
    6575.3490  34185.500000  46805.301553  30496.001527
    6575.6540  34181.500000  46771.299770  30460.999548
    6576.0110  34190.500000  46788.302622  30496.000007
    6576.3160  34188.500000  46766.298697  30467.999321
    6576.6730  34193.500000  46787.303226  30491.000287
    6576.9780  34187.500000  46754.302341  30437.000200
    6577.3350  34188.500000  46767.299507  30442.998403
    6577.6910  34180.500000  46742.303259  30378.001331
    6577.9970  34190.500000  46807.302529  30447.001844
    6578.3540  34194.500000  46834.298687  30439.999374
    6578.6600  34195.500000  46853.300595  30426.999523
    6579.0160  34196.500000  46903.303011  30436.002476
    6579.3220  34190.500000  46917.302361  30399.000443
    6579.6790  34184.500000  46942.301738  30364.000875
    6579.9850  34195.500000  47032.302669  30432.002133
    6580.7500  34188.500000  47136.301197  30415.000682
    6581.5150  34184.500000  47229.302940  30376.000062
    6582.2800  34189.500000  47380.302316  30422.999333
    6583.0460  34187.500000  47500.302535  30400.002182
    6583.8120  34189.500000  47659.299771  30433.999236
    6584.5260  34173.500000  47693.303009  30289.002411
    6585.2920  34186.500000  47886.298962  30376.000193
    6586.0590  34174.500000  47943.299484  30256.999675
    6586.8250  34171.500000  48055.301548  30238.999436
    6587.5920  34169.500000  48166.301296  30226.001576
    6588.3590  34166.500000  48246.299563  30182.999392
    6589.0750  34181.500000  48363.300020  30214.999161
    6589.8420  34176.500000  48404.300999  30152.000525
    6590.6100  34186.500000  48493.299284  30177.998407
    6591.3770  34181.500000  48484.301350  30095.999683
    6592.1460  34174.500000  48490.298738  30067.999056
    6592.8630  34152.500000  48440.298929  29996.997394
    6593.6310  34159.500000  48483.301118  30050.999805
    6594.3990  34142.500000  48390.303008  29898.001616
    6595.1680  34148.500000  48439.299684  29964.000003
    6595.8860  34143.500000  48400.300924  29894.001189
    6596.6550  34138.500000  48387.299858  29846.998430
    6597.4240  34132.500000  48368.303343  29778.001303
    6598.1940  34124.500000  48347.301153  29713.001215
    6598.9640  34125.500000  48378.301903  29702.000648
    6599.6830  34125.500000  48400.299679  29678.999418
    6600.4530  34119.500000  48396.300186  29613.000422
    6601.2230  34104.500000  48407.300561  29604.999242
    6601.9940  34112.500000  48466.298787  29648.999643
    6602.7130  34100.500000  48406.298857  29531.997807
    6603.4840  34109.500000  48459.303270  29602.000333
    6604.2550  34102.500000  48430.302154  29556.000782
    6604.9760  34088.500000  48355.302454  29451.000549
    6605.7470  34088.500000  48339.299497  29457.998938
    6606.5190  34081.500000  48237.301658  29331.001111
    6607.2910  34088.500000  48283.301875  29436.999927
    6608.0120  34077.500000  48226.301305  29372.000084
    6608.7850  34085.500000  48232.302547  29396.001859
    6609.5570  34082.500000  48194.299965  29342.000568
    6610.2780  34069.500000  48127.298663  29255.999270
    6611.0510  34070.500000  48132.301820  29260.000341
    6611.8250  34066.500000  48116.299984  29235.999126
    6612.5980  34063.500000  48099.300279  29187.000733
    6613.3200  34056.500000  48079.298994  29184.998000
    6614.0940  34056.500000  48071.299264  29184.998000
    6614.8680  34047.500000  48023.299936  29135.000229
    6615.5910  34037.500000  47974.300343  29106.000568
    6616.3650  34030.500000  47890.300126  29037.998962
    6617.1410  34032.500000  47859.299714  29046.998335
    6617.8630  34027.500000  47797.303283  29022.001688
    6618.6390  34025.500000  47742.302202  28983.999708
    6619.4140  34003.500000  47665.299554  28934.997843
    6620.1380  33994.500000  47593.302465  28844.001378
    6620.9140  34002.500000  47640.300459  28913.998393
    6621.6890  33999.500000  47618.298928  28848.999663
    6622.4140  33988.500000  47600.303254  28779.002233
    6623.1900  33994.500000  47672.301449  28824.999443
    6623.9150  33982.500000  47652.299460  28741.000330
    6624.6920  33987.500000  47735.302092  28800.000657
    6625.4690  33976.500000  47727.302289  28721.001340
    6626.1940  33970.500000  47740.299809  28678.998661
    6626.9720  33957.500000  47740.301804  28606.999988
    6627.7490  33962.500000  47824.299820  28656.998090
    6628.4750  33945.500000  47817.299935  28587.998513
    6629.2530  33934.500000  47825.300374  28537.998958
    6629.9790  33933.500000  47885.302828  28571.000276

