# XDI/1.0
# Column.1: energy eV
# Column.2: i0
# Column.3: itrans
# Column.4: irefer
# Beamline.name: SSRL 4-3
# Detector.I0: N2 15cm
# Detector.I1: N2 30cm
# Detector.I2: N2 15cm
# Element.edge: K
# Element.symbol: Mn
# Mono.d_spacing: 1.92009
# Mono.name: Si(220)
# Mono.notes: unfocused, detuned 10%
# Sample.formula: MnO
# Sample.name: MnO
# Sample.prep: powder, mixed with B(OH)3
# Sample.reference: Mn filter
# Sample.temperature: room temperature
# Scan.start_time: 1995-06-20 02:43:21
# ///
#    Note: mono d_spacing is nominal!
#     217  E XMU I0
#-------------
#   energy   i0   itrans  irefer
    6520.0030  30933.500000  38654.300593  20161.999887
    6521.0010  30932.500000  38701.300770  20203.000058
    6522.0000  30924.500000  38711.300113  20195.000020
    6523.0000  30914.500000  38688.300029  20123.999937
    6523.9990  30910.500000  38709.301965  20113.001204
    6524.9990  30907.500000  38699.302356  20048.999914
    6525.9990  30889.500000  38672.301502  19978.999968
    6527.0000  30882.500000  38649.300650  19899.998979
    6528.0000  30874.500000  38677.301387  19916.999245
    6529.0020  30870.500000  38650.299937  19820.000128
    6530.0030  30857.500000  38662.302614  19820.000074
    6531.0060  30842.500000  38625.300262  19712.000426
    6532.0080  30835.500000  38627.301672  19672.999732
    6533.0110  30829.500000  38629.302623  19632.000703
    6534.0140  30827.500000  38617.299466  19565.999662
    6535.0170  30814.500000  38580.302890  19463.000606
    6535.3180  30803.500000  38532.302670  19371.999910
    6535.6690  30803.500000  38540.302806  19364.000926
    6536.0210  30792.500000  38500.300784  19282.000686
    6536.3220  30792.500000  38499.299789  19262.000206
    6536.6740  30795.500000  38480.302054  19198.001314
    6537.0250  30791.500000  38490.300630  19189.999383
    6537.3270  30782.500000  38444.300238  19092.999445
    6537.6780  30779.500000  38415.302544  19006.001239
    6537.9790  30774.500000  38368.301042  18884.000421
    6538.3310  30771.500000  38343.301190  18779.999308
    6538.6830  30773.500000  38315.301372  18642.000566
    6538.9840  30756.500000  38199.302414  18354.000360
    6539.3360  30761.500000  38161.299809  18098.998551
    6539.6880  30768.500000  38110.302003  17769.999950
    6539.9900  30750.500000  38051.300190  17518.999090
    6540.3410  30761.500000  38016.299732  17309.000184
    6540.6430  30752.500000  37995.300908  17292.999938
    6540.9950  30751.500000  37977.302307  17321.000613
    6541.3470  30745.500000  37937.301711  17312.999614
    6541.6490  30740.500000  37882.300716  17235.000060
    6542.0010  30747.500000  37797.300704  17096.999669
    6542.3530  30731.500000  37610.301434  16838.999370
    6542.6550  30729.500000  37425.302207  16595.000997
    6543.0070  30714.500000  37153.302211  16278.000861
    6543.3090  30717.500000  36916.301360  16004.000540
    6543.6620  30707.500000  36606.302478  15642.000317
    6544.0140  30699.500000  36240.300309  15165.000405
    6544.3160  30698.500000  36011.300554  14867.000027
    6544.6680  30698.500000  35692.300507  14358.000220
    6545.0210  30694.500000  35451.302190  13913.000426
    6545.3230  30699.500000  35290.301030  13553.000580
    6545.6760  30702.500000  35148.301110  13159.999455
    6545.9780  30693.500000  35056.302287  12858.002830
    6546.3310  30682.500000  34927.300039  12445.993445
    6546.6830  30691.500000  34867.300560  12124.005869
    6546.9860  30665.500000  34719.300551  11758.998111
    6547.3380  30664.500000  34652.301116  11523.001103
    6547.6910  30669.500000  34552.301977  11284.997350
    6547.9940  30655.500000  34444.302241  11104.002086
    6548.3470  30659.500000  34347.301802  10941.998575
    6548.6490  30651.500000  34223.300075  10776.002820
    6549.0020  30647.500000  34105.299848  10676.998909
    6549.3550  30639.500000  33912.301552  10478.000055
    6549.6580  30638.500000  33786.301121  10417.003553
    6550.0110  30630.500000  33575.300906  10248.001435
    6550.3140  30634.500000  33486.300833  10239.998006
    6550.6670  30625.500000  33318.300989  10090.998868
    6551.0200  30620.500000  33206.301074  9990.999616
    6551.3230  30625.500000  33167.301143  9949.999344
    6551.6760  30620.500000  33108.301094  9870.001834
    6551.9790  30617.500000  33093.300858  9864.001036
    6552.3330  30621.500000  33073.300869  9842.997972
    6552.6870  30615.500000  33022.300853  9796.999023
    6552.9890  30611.500000  32964.300912  9737.001201
    6553.3430  30612.500000  32961.300866  9796.999568
    6553.6460  30613.500000  32884.300918  9714.002178
    6554.0000  30600.500000  32810.300926  9661.998575
    6554.3530  30604.500000  32777.301126  9640.001237
    6554.6560  30606.500000  32803.301136  9669.002545
    6555.0100  30609.500000  32844.301130  9641.997033
    6555.3130  30599.500000  32877.300951  9572.998497
    6555.6670  30597.500000  33007.300896  9571.000795
    6556.0210  30587.500000  33102.301072  9478.999747
    6556.3240  30589.500000  33284.300948  9549.997024
    6556.6780  30593.500000  33438.300953  9512.997088
    6556.9820  30582.500000  33523.301022  9428.997204
    6557.3360  30574.500000  33657.300894  9419.000682
    6557.6900  30573.500000  33788.301080  9409.996867
    6557.9930  30577.500000  33900.299338  9435.997007
    6558.3480  30558.500000  33931.299562  9339.996517
    6558.6510  30559.500000  34006.300046  9359.003329
    6559.0050  30558.500000  34050.301232  9330.997099
    6559.3090  30564.500000  34095.302042  9331.003868
    6559.6630  30555.500000  34130.301684  9346.001475
    6560.0180  30550.500000  34127.300054  9304.002204
    6560.3220  30545.500000  34128.300789  9287.997500
    6560.6760  30539.500000  34150.301944  9301.999971
    6560.9790  30540.500000  34182.300184  9325.000057
    6561.3340  30564.500000  34267.301991  9395.995659
    6561.6880  30556.500000  34235.301830  9316.996650
    6561.9930  30558.500000  34288.299699  9380.003905
    6562.3470  30550.500000  34276.299960  9330.999644
    6562.6520  30552.500000  34308.300272  9370.995326
    6563.0060  30553.500000  34321.299748  9371.003104
    6563.3110  30549.500000  34327.302159  9385.998137
    6563.6650  30541.500000  34299.302356  9358.003950
    6564.0200  30537.500000  34266.302490  9315.004029
    6564.3240  30538.500000  34290.302309  9379.004081
    6564.6790  30534.500000  34227.300706  9300.996937
    6564.9830  30537.500000  34230.300679  9336.003189
    6565.3390  30537.500000  34176.300519  9289.998920
    6565.6430  30529.500000  34133.299382  9282.003606
    6565.9980  30520.500000  34061.301585  9229.998528
    6566.3540  30505.500000  33978.300328  9172.997328
    6566.6580  30519.500000  33992.299837  9240.001274
    6567.0130  30508.500000  33902.302530  9156.004864
    6567.3170  30497.500000  33851.300328  9125.999366
    6567.6730  30500.500000  33823.302125  9106.996615
    6567.9770  30491.500000  33796.300919  9074.999783
    6568.3330  30484.500000  33790.302658  9062.996979
    6568.6880  30472.500000  33770.300661  9001.000498
    6568.9930  30470.500000  33793.301502  9001.998448
    6569.3490  30467.500000  33826.301194  8989.000307
    6569.6540  30450.500000  33819.302331  8936.997783
    6570.0090  30459.500000  33898.302262  8970.998024
    6570.3140  30455.500000  33964.300980  9013.000200
    6570.6700  30452.500000  33989.300795  8964.002121
    6571.0250  30446.500000  34008.301107  8917.999454
    6571.3300  30445.500000  34086.301907  8972.995798
    6571.6870  30447.500000  34095.301504  8903.002585
    6571.9910  30439.500000  34146.302475  8955.002432
    6572.3470  30438.500000  34149.302271  8892.997369
    6572.6520  30440.500000  34209.300742  8944.998584
    6573.0080  30435.500000  34208.299507  8909.002570
    6573.3130  30433.500000  34212.301602  8892.998443
    6573.6690  30423.500000  34206.299948  8871.996327
    6573.9750  30419.500000  34185.300787  8824.004131
    6574.3310  30408.500000  34186.299849  8827.995464
    6574.6870  30412.500000  34217.301505  8856.001884
    6574.9930  30395.500000  34152.301279  8765.003968
    6575.3490  30381.500000  34145.300755  8756.996410
    6575.6540  30381.500000  34156.300728  8760.001451
    6576.0110  30379.500000  34165.301016  8767.998322
    6576.3160  30386.500000  34171.300696  8755.999572
    6576.6730  30369.500000  34132.302228  8692.001329
    6576.9780  30376.500000  34174.299438  8751.996827
    6577.3350  30379.500000  34174.301341  8725.004107
    6577.6910  30363.500000  34162.301103  8706.002490
    6577.9970  30363.500000  34165.300685  8706.000749
    6578.3540  30347.500000  34142.301947  8673.003383
    6578.6600  30340.500000  34114.300084  8612.999689
    6579.0160  30347.500000  34168.300962  8671.999108
    6579.3220  30352.500000  34194.300784  8686.003929
    6579.6790  30354.500000  34203.301575  8684.998063
    6579.9850  30352.500000  34212.301981  8696.001188
    6580.7500  30344.500000  34198.301599  8671.995987
    6581.5150  30332.500000  34214.302040  8709.999600
    6582.2800  30334.500000  34173.301409  8634.999715
    6583.0460  30311.500000  34130.300876  8610.002239
    6583.8120  30309.500000  34110.300111  8582.999073
    6584.5260  30295.500000  34086.301452  8568.996118
    6585.2920  30294.500000  34069.299740  8537.000170
    6586.0590  30294.500000  34090.299712  8547.996072
    6586.8250  30282.500000  34068.301865  8503.997847
    6587.5920  30278.500000  34053.301549  8471.003594
    6588.3590  30261.500000  34001.300624  8417.995851
    6589.0750  30257.500000  33951.301452  8381.996967
    6589.8420  30242.500000  33860.299430  8325.001532
    6590.6100  30245.500000  33798.300261  8292.002641
    6591.3770  30225.500000  33710.300348  8251.998711
    6592.1460  30220.500000  33639.302547  8198.999233
    6592.8630  30218.500000  33603.301451  8185.999521
    6593.6310  30212.500000  33556.300698  8137.000686
    6594.3990  30204.500000  33524.302377  8096.004108
    6595.1680  30187.500000  33486.301053  8031.998943
    6595.8860  30184.500000  33475.299804  7982.996543
    6596.6550  30183.500000  33512.299391  7984.997890
    6597.4240  30167.500000  33499.301436  7925.002110
    6598.1940  30153.500000  33488.302631  7873.000145
    6598.9640  30139.500000  33470.300849  7798.999871
    6599.6830  30136.500000  33520.301215  7840.999094
    6600.4530  30120.500000  33507.302597  7753.004170
    6601.2230  30120.500000  33563.299830  7746.996370
    6601.9940  30112.500000  33601.300378  7710.999129
    6602.7130  30108.500000  33668.299396  7724.002776
    6603.4840  30100.500000  33710.301829  7694.997812
    6604.2550  30086.500000  33729.302373  7635.000210
    6604.9760  30072.500000  33778.301635  7640.000227
    6605.7470  30076.500000  33818.302024  7596.997747
    6606.5190  30063.500000  33838.300483  7560.998902
    6607.2910  30057.500000  33894.301871  7583.000107
    6608.0120  30048.500000  33897.302635  7533.000558
    6608.7850  30036.500000  33908.299546  7496.999012
    6609.5570  30037.500000  33926.302587  7460.001394
    6610.2780  30014.500000  33938.300953  7452.996738
    6611.0510  30010.500000  33957.302290  7409.003282
    6611.8250  30001.500000  33983.301799  7383.001627
    6612.5980  29997.500000  34034.300178  7387.001081
    6613.3200  29995.500000  34068.301269  7365.002360
    6614.0940  29985.500000  34110.301365  7369.003093
    6614.8680  29965.500000  34086.302586  7285.001313
    6615.5910  29953.500000  34103.300865  7275.002663
    6616.3650  29945.500000  34105.302231  7229.998747
    6617.1410  29965.500000  34177.301330  7274.002716
    6617.8630  29951.500000  34149.300641  7218.997601
    6618.6390  29949.500000  34156.299341  7200.000028
    6619.4140  29936.500000  34137.301487  7177.999131
    6620.1380  29931.500000  34119.301056  7148.998218
    6620.9140  29923.500000  34102.299801  7131.002480
    6621.6890  29911.500000  34073.301208  7096.999732
    6622.4140  29898.500000  34025.301578  7053.002495
    6623.1900  29900.500000  34039.302152  7078.002978
    6623.9150  29881.500000  33982.302004  6999.997975
    6624.6920  29857.500000  33947.301441  6959.999236
    6625.4690  29865.500000  33977.300458  6970.003090
    6626.1940  29840.500000  33971.299345  6962.997321
    6626.9720  29830.500000  33974.300122  6932.998198
    6627.7490  29828.500000  34006.300365  6940.000262
    6628.4750  29808.500000  33992.302018  6900.998338
    6629.2530  29801.500000  33996.301110  6852.001010
    6629.9790  29785.500000  34005.300105  6850.998430

