# XDI/1.0
# Column.1: energy eV
# Column.2: i0
# Column.3: itrans
# Column.4: irefer
# Beamline.name: SSRL 4-3
# Detector.I0: N2 15cm
# Detector.I1: N2 30cm
# Detector.I2: N2 15cm
# Element.edge: K
# Element.symbol: Mn
# Mono.d_spacing: 1.92009
# Mono.name: Si(220)
# Mono.notes: unfocused, detuned 10%
# Sample.formula: MnO
# Sample.name: MnO
# Sample.prep: powder, mixed with B(OH)3
# Sample.reference: Mn filter
# Sample.temperature: room temperature
# Scan.start_time: 1995-06-20 02:43:21
# ///
#    Note: mono d_spacing is nominal!
#     217  E XMU I0
#-------------
#   energy   i0   itrans  irefer
    6520.0030  30792.500000  38290.302046  19360.001394
    6521.0010  30777.500000  38309.300651  19373.998887
    6522.0000  30762.500000  38283.301759  19299.000668
    6523.0000  30752.500000  38258.302355  19230.000618
    6523.9990  30746.500000  38264.300766  19202.999036
    6524.9990  30754.500000  38287.299100  19170.998169
    6525.9990  30744.500000  38294.302161  19163.001533
    6527.0000  30735.500000  38275.302250  19088.001393
    6528.0000  30726.500000  38290.302835  19086.001764
    6529.0020  30722.500000  38284.299797  19032.999438
    6530.0030  30706.500000  38247.299580  18943.999997
    6531.0060  30702.500000  38256.301221  18912.999398
    6532.0080  30696.500000  38248.301023  18845.999092
    6533.0110  30678.500000  38225.299368  18787.998410
    6534.0140  30674.500000  38207.299760  18711.000081
    6535.0170  30669.500000  38198.302422  18637.000435
    6535.3180  30676.500000  38213.302545  18647.000259
    6535.6690  30673.500000  38179.300218  18558.000496
    6536.0210  30678.500000  38218.300956  18593.000329
    6536.3220  30677.500000  38194.299887  18538.999363
    6536.6740  30660.500000  38141.299873  18442.000168
    6537.0250  30659.500000  38142.302400  18412.000727
    6537.3270  30654.500000  38105.299636  18332.999192
    6537.6780  30650.500000  38087.299323  18267.999637
    6537.9790  30650.500000  38066.299969  18183.999798
    6538.3310  30637.500000  38003.301930  18025.999797
    6538.6830  30627.500000  37930.301260  17818.999901
    6538.9840  30629.500000  37903.300656  17664.000473
    6539.3360  30622.500000  37808.299155  17329.998772
    6539.6880  30616.500000  37733.299457  16994.999935
    6539.9900  30613.500000  37696.301573  16749.000555
    6540.3410  30604.500000  37635.300648  16536.000572
    6540.6430  30606.500000  37634.301358  16543.000878
    6540.9950  30606.500000  37625.300310  16596.999146
    6541.3470  30610.500000  37626.300504  16633.999899
    6541.6490  30603.500000  37528.302495  16491.000065
    6542.0010  30596.500000  37427.301447  16350.000425
    6542.3530  30598.500000  37273.301324  16126.000192
    6542.6550  30593.500000  37124.300979  15947.000707
    6543.0070  30598.500000  36891.301375  15666.000458
    6543.3090  30591.500000  36639.302117  15378.001168
    6543.6620  30582.500000  36303.300135  14984.999238
    6544.0140  30580.500000  35939.301677  14503.999673
    6544.3160  30570.500000  35674.301787  14149.000587
    6544.6680  30574.500000  35372.300009  13669.999692
    6545.0210  30576.500000  35153.301506  13265.000696
    6545.3230  30570.500000  34996.301752  12927.999869
    6545.6760  30566.500000  34824.300664  12502.997781
    6545.9780  30572.500000  34752.301919  12217.994353
    6546.3310  30563.500000  34633.301370  11816.994256
    6546.6830  30557.500000  34549.302251  11483.995319
    6546.9860  30557.500000  34474.301233  11216.996298
    6547.3380  30539.500000  34327.302462  10865.004498
    6547.6910  30536.500000  34230.302488  10641.998438
    6547.9940  30529.500000  34136.299831  10474.998570
    6548.3470  30542.500000  34077.299415  10368.998659
    6548.6490  30525.500000  33949.302195  10210.997236
    6549.0020  30529.500000  33821.301615  10078.997762
    6549.3550  30517.500000  33643.301069  9922.996672
    6549.6580  30526.500000  33540.300937  9872.999706
    6550.0110  30515.500000  33307.300968  9675.003699
    6550.3140  30512.500000  33197.300943  9644.999319
    6550.6670  30513.500000  33041.301140  9507.997900
    6551.0200  30509.500000  32953.301082  9446.000652
    6551.3230  30507.500000  32898.300997  9391.002171
    6551.6760  30505.500000  32860.301085  9342.998836
    6551.9790  30503.500000  32831.301066  9312.004378
    6552.3330  30507.500000  32797.300987  9272.001103
    6552.6870  30502.500000  32767.301002  9259.000426
    6552.9890  30502.500000  32723.301148  9218.998393
    6553.3430  30489.500000  32651.301008  9171.003398
    6553.6460  30490.500000  32608.301059  9156.004464
    6554.0000  30481.500000  32536.301077  9105.998955
    6554.3530  30507.500000  32584.300904  9186.000176
    6554.6560  30503.500000  32549.300914  9111.996947
    6555.0100  30501.500000  32593.300879  9106.002147
    6555.3130  30496.500000  32633.301094  9031.001532
    6555.6670  30495.500000  32753.301028  9024.000514
    6556.0210  30491.500000  32905.300896  9020.003898
    6556.3240  30516.500000  33091.301092  9060.002907
    6556.6780  30525.500000  33271.300877  9066.000339
    6556.9820  30511.500000  33362.301060  9004.996156
    6557.3360  30509.500000  33488.300885  8959.999315
    6557.6900  30516.500000  33653.301054  9009.000660
    6557.9930  30510.500000  33741.299337  8999.001139
    6558.3480  30506.500000  33787.299440  8920.000259
    6558.6510  30504.500000  33847.299364  8917.995608
    6559.0050  30498.500000  33879.299785  8876.001749
    6559.3090  30494.500000  33927.301338  8909.000336
    6559.6630  30486.500000  33912.299398  8833.998670
    6560.0180  30484.500000  33942.301139  8839.002737
    6560.3220  30479.500000  33974.302380  8875.000809
    6560.6760  30478.500000  33967.300676  8824.997478
    6560.9790  30475.500000  33997.302462  8858.001565
    6561.3340  30472.500000  34008.300853  8833.997565
    6561.6880  30478.500000  34074.299406  8906.001871
    6561.9930  30461.500000  34030.299556  8835.001638
    6562.3470  30465.500000  34069.300351  8856.996360
    6562.6520  30456.500000  34083.300266  8893.996834
    6563.0060  30452.500000  34062.299719  8846.998001
    6563.3110  30447.500000  34056.301753  8836.996787
    6563.6650  30446.500000  34045.301847  8825.003902
    6564.0200  30449.500000  34093.299646  8912.001698
    6564.3240  30438.500000  34015.301058  8819.996335
    6564.6790  30443.500000  34012.299414  8831.997502
    6564.9830  30452.500000  34025.300920  8864.002328
    6565.3390  30438.500000  33934.301773  8772.995889
    6565.6430  30443.500000  33931.300490  8810.999699
    6565.9980  30447.500000  33869.299648  8761.998244
    6566.3540  30450.500000  33861.301525  8808.999016
    6566.6580  30431.500000  33761.299327  8721.996395
    6567.0130  30432.500000  33733.301223  8734.996268
    6567.3170  30425.500000  33682.299857  8687.997475
    6567.6730  30418.500000  33633.300953  8645.999046
    6567.9770  30418.500000  33613.301142  8617.998421
    6568.3330  30416.500000  33608.301145  8602.003096
    6568.6880  30409.500000  33619.301774  8589.000385
    6568.9930  30412.500000  33657.301227  8602.002355
    6569.3490  30409.500000  33715.300652  8629.001174
    6569.6540  30403.500000  33716.301127  8577.996974
    6570.0090  30416.500000  33790.301530  8595.998672
    6570.3140  30395.500000  33779.299402  8536.995843
    6570.6700  30385.500000  33809.300283  8516.001481
    6571.0250  30389.500000  33873.302052  8522.997976
    6571.3300  30396.500000  33960.302543  8588.003351
    6571.6870  30392.500000  33988.300670  8555.996374
    6571.9910  30385.500000  34012.299899  8549.999470
    6572.3470  30371.500000  34014.301505  8516.999170
    6572.6520  30387.500000  34070.300089  8545.997457
    6573.0080  30384.500000  34071.300759  8507.995853
    6573.3130  30384.500000  34091.299666  8514.999113
    6573.6690  30366.500000  34077.301828  8489.002711
    6573.9750  30353.500000  34063.302511  8467.003196
    6574.3310  30347.500000  34077.302328  8484.004285
    6574.6870  30340.500000  34057.301821  8442.997957
    6574.9930  30330.500000  34048.300072  8437.998255
    6575.3490  30333.500000  34062.300391  8449.001024
    6575.6540  30325.500000  34004.301888  8352.000097
    6576.0110  30331.500000  34035.301877  8381.997711
    6576.3160  30342.500000  34055.299866  8383.996164
    6576.6730  30333.500000  34058.301712  8383.997357
    6576.9780  30339.500000  34091.302527  8424.998464
    6577.3350  30331.500000  34046.300460  8348.003233
    6577.6910  30333.500000  34077.301325  8379.996630
    6577.9970  30330.500000  34067.300919  8338.997513
    6578.3540  30336.500000  34116.301094  8390.996687
    6578.6600  30324.500000  34078.301655  8329.003879
    6579.0160  30319.500000  34090.299438  8337.003589
    6579.3220  30321.500000  34100.301703  8335.997890
    6579.6790  30309.500000  34087.300471  8319.997004
    6579.9850  30308.500000  34078.299425  8291.996738
    6580.7500  30297.500000  34072.302160  8289.003865
    6581.5150  30302.500000  34107.299309  8342.003517
    6582.2800  30294.500000  34066.301773  8275.999321
    6583.0460  30277.500000  34039.300782  8266.000383
    6583.8120  30262.500000  33979.300224  8201.003479
    6584.5260  30264.500000  33982.300260  8208.997497
    6585.2920  30256.500000  33952.301325  8164.999273
    6586.0590  30248.500000  33926.302431  8109.000328
    6586.8250  30235.500000  33944.299483  8137.003003
    6587.5920  30227.500000  33902.301606  8063.001696
    6588.3590  30222.500000  33891.301214  8068.998557
    6589.0750  30212.500000  33813.301008  7987.000208
    6589.8420  30210.500000  33765.299937  7980.001872
    6590.6100  30200.500000  33670.301259  7908.002176
    6591.3770  30200.500000  33634.300031  7927.996698
    6592.1460  30177.500000  33515.302098  7825.002951
    6592.8630  30168.500000  33463.300594  7798.998544
    6593.6310  30169.500000  33436.301475  7781.002456
    6594.3990  30151.500000  33373.299803  7707.001282
    6595.1680  30148.500000  33372.301873  7684.999183
    6595.8860  30147.500000  33369.299512  7639.997691
    6596.6550  30136.500000  33370.302632  7601.004136
    6597.4240  30139.500000  33406.299962  7598.003412
    6598.1940  30128.500000  33427.301212  7591.999289
    6598.9640  30116.500000  33393.300443  7498.997120
    6599.6830  30108.500000  33434.300160  7523.002478
    6600.4530  30096.500000  33426.302362  7438.997431
    6601.2230  30087.500000  33481.300974  7447.996746
    6601.9940  30077.500000  33509.302402  7393.003529
    6602.7130  30070.500000  33552.300311  7371.000313
    6603.4840  30062.500000  33592.302480  7343.003447
    6604.2550  30055.500000  33644.300726  7330.998096
    6604.9760  30046.500000  33668.301340  7292.998524
    6605.7470  30064.500000  33762.302645  7317.998589
    6606.5190  30051.500000  33782.299319  7282.003108
    6607.2910  30046.500000  33811.300524  7259.000024
    6608.0120  30034.500000  33826.300490  7238.996711
    6608.7850  30031.500000  33849.300376  7209.000615
    6609.5570  30025.500000  33877.301594  7198.000079
    6610.2780  30010.500000  33868.301584  7147.999451
    6611.0510  29996.500000  33902.301678  7150.997863
    6611.8250  29988.500000  33915.301181  7098.001566
    6612.5980  29981.500000  33949.299645  7083.996492
    6613.3200  29979.500000  34001.301889  7090.003362
    6614.0940  29969.500000  34013.302491  7042.003360
    6614.8680  29962.500000  34039.302053  7035.000768
    6615.5910  29947.500000  34041.301882  6992.999300
    6616.3650  29928.500000  34040.299552  6969.999156
    6617.1410  29920.500000  34034.300836  6926.002897
    6617.8630  29909.500000  34036.301822  6912.999715
    6618.6390  29903.500000  34031.301396  6894.001808
    6619.4140  29895.500000  34004.299326  6840.001613
    6620.1380  29875.500000  33981.302488  6821.998380
    6620.9140  29875.500000  33965.301063  6791.001632
    6621.6890  29868.500000  33968.302602  6812.000344
    6622.4140  29859.500000  33930.300905  6771.999884
    6623.1900  29842.500000  33902.299773  6751.001417
    6623.9150  29851.500000  33905.301542  6736.997762
    6624.6920  29842.500000  33903.299905  6728.998707
    6625.4690  29824.500000  33872.301089  6663.997991
    6626.1940  29816.500000  33887.300631  6670.997050
    6626.9720  29799.500000  33866.299837  6619.000753
    6627.7490  29797.500000  33902.301311  6632.003180
    6628.4750  29783.500000  33915.300302  6618.999654
    6629.2530  29767.500000  33904.301503  6571.997990
    6629.9790  29758.500000  33941.301477  6607.997154

