# XDI/1.0
# Column.1: energy eV
# Column.2: i0
# Column.3: itrans
# Column.4: irefer
# Beamline.name: SSRL 4-3
# Detector.I0: N2 15cm
# Detector.I1: Ar 30cm
# Detector.I2: Ar 15cm
# Element.edge: K
# Element.symbol: Cu
# Mono.d_spacing: 1.92009
# Mono.name: Si(220)
# Mono.notes: unfocused, detuned 50%,higher piezo, at E=9500eV
# Sample.formula: Cu2S
# Sample.name: Cu2S  cuprous sulfide
# Sample.prep: powder, mixed with B(OH)3
# Sample.reference: Cu metal foil (?)
# Sample.temperature: 13K
# Scan.start_time: 1996-07-27 16:01:27
# ///
#    Note: mono d_spacing is nominal!
#     exafs to K15
#     454  E XMU XMUR I0
#-------------
#   energy   i0   itrans  irefer
    8759.9900  36329.301000  172572.528944  9157.402840
    8769.9810  35991.301000  172668.448039  9243.395258
    8779.9960  35553.301000  172604.527085  9292.401350
    8789.9870  35191.301000  172622.464097  9366.400973
    8800.0020  34770.301000  172485.573807  9422.407252
    8809.9940  34412.301000  172543.449803  9496.393431
    8820.0110  34037.301000  172600.557989  9570.400092
    8830.0020  33641.301000  172373.478356  9624.399692
    8840.0200  33254.301000  172348.417689  9680.398929
    8850.0100  32856.301000  172156.429581  9742.400428
    8859.9770  32504.301000  172162.434716  9824.393436
    8870.0170  32118.301000  172007.484824  9883.404054
    8879.9810  31738.301000  171754.509165  9943.401695
    8890.0210  31370.301000  171612.429482  9994.396814
    8899.9840  31014.301000  171434.525927  10051.404949
    8910.0220  30684.301000  171437.566350  10115.401423
    8919.9840  30294.301000  170974.531877  10173.401406
    8930.0210  29912.301000  170578.533971  10207.398500
    8939.9800  29598.301000  170386.427608  10265.399425
    8950.0150  29207.301000  169666.494351  10259.403629
    8960.0220  28840.301000  168706.538889  10234.401579
    8960.7820  28838.301000  168624.508445  10232.402485
    8961.4910  28799.301000  168439.581043  10225.403017
    8962.2500  28777.301000  168415.462331  10213.393188
    8963.0100  28706.301000  168004.479999  10195.400077
    8963.7700  28716.301000  168047.544211  10197.401578
    8964.5290  28693.301000  167954.428031  10185.393466
    8965.2890  28618.301000  167558.477256  10164.399888
    8966.0500  28629.301000  167635.453800  10156.396498
    8966.8100  28661.301000  167779.533275  10150.396976
    8967.5690  28687.301000  167871.457226  10152.394114
    8968.3300  28626.301000  167445.497562  10124.395532
    8969.0910  28631.301000  167378.474057  10109.398745
    8969.8520  28584.301000  167008.490265  10081.395051
    8970.6130  28530.301000  166548.526177  10022.401278
    8971.3740  28522.301000  166199.566234  9973.407217
    8972.1360  28438.301000  165537.517894  9911.402513
    8972.8960  28397.301000  165038.553707  9862.405510
    8973.6590  28387.301000  164566.525252  9800.397022
    8974.3690  28354.301000  163864.477488  9702.394682
    8975.1310  28331.301000  162977.513261  9558.398918
    8975.8930  28323.301000  161922.499525  9376.399332
    8976.6540  28292.301000  160285.518920  9108.396844
    8977.4170  28243.301000  157758.486438  8650.397700
    8978.1790  28198.301000  153777.496220  7830.401046
    8978.9410  28196.301000  147152.549315  6521.404710
    8979.7040  28190.301000  134484.504283  5053.398477
    8980.4670  28117.301000  117058.531722  3925.399309
    8981.2300  28120.301000  102846.519092  3327.401839
    8981.9930  28057.301000  95090.482274  3120.399016
    8982.7050  28026.301000  91256.515323  3067.400287
    8983.4690  28005.301000  86812.516770  2980.400876
    8984.2320  27944.301000  81692.506585  2802.400241
    8984.9960  27930.301000  76973.496156  2604.399569
    8985.7600  27902.301000  73587.498837  2445.401100
    8986.5220  27873.301000  71544.503114  2322.401262
    8987.2870  27854.301000  69979.503282  2210.399766
    8988.0510  27792.301000  67810.499300  2075.400277
    8988.7650  27781.301000  65855.501358  1946.400888
    8989.5280  27760.301000  64328.500684  1816.400469
    8990.2930  27757.301000  63626.497102  1704.399765
    8991.0590  27698.301000  63229.500706  1610.400612
    8991.8230  27690.301000  63059.498887  1535.399653
    8992.5880  27630.301000  62837.500240  1478.399425
    8993.3540  27611.301000  62835.502831  1451.399474
    8994.0680  27598.301000  62901.500129  1444.400004
    8994.8330  27537.301000  62767.497615  1453.399631
    8995.5990  27527.301000  62415.502115  1472.399931
    8996.3630  27503.301000  61703.498669  1490.400139
    8997.1300  27451.301000  60814.500895  1507.399924
    8997.8960  27423.301000  60138.501084  1514.399898
    8998.6610  27422.301000  59730.500582  1516.399519
    8999.3760  27385.301000  59423.502292  1506.400168
    9000.1430  27344.301000  59174.501678  1483.399976
    9000.9090  27324.301000  59048.500747  1451.399339
    9001.6760  27268.301000  58954.501891  1418.400732
    9002.4420  27288.301000  59201.499771  1398.400209
    9003.1580  27257.301000  59414.500446  1392.400606
    9003.9260  27213.301000  59649.499693  1401.400034
    9004.6930  27192.301000  59886.498663  1422.399283
    9005.4600  27147.301000  59971.498884  1441.399376
    9006.2280  27119.301000  60028.502339  1464.399833
    9006.9440  27123.301000  60075.498164  1482.399523
    9007.7120  27069.301000  59985.500900  1496.399488
    9008.4790  27041.301000  59961.498460  1512.399805
    9009.2480  27015.301000  59919.500867  1527.400100
    9010.0160  26974.301000  59888.499873  1541.400622
    9010.5270  26976.297000  59937.490344  1547.395495
    9011.0920  26946.287000  59944.450849  1552.384777
    9011.6550  26924.271000  59981.390001  1551.365247
    9012.2190  26919.248000  60062.306781  1556.339313
    9012.7830  26912.219000  60157.193105  1556.304377
    9013.3970  26870.184000  60194.065661  1550.261723
    9014.0130  26885.143000  60378.901391  1548.212019
    9014.5760  26868.094000  60490.721279  1543.153401
    9015.1910  26864.039000  60667.513196  1541.089066
    9015.8580  26837.979000  60869.279833  1535.015703
    9016.4740  26806.910000  61046.025136  1524.935463
    9017.1410  26818.836000  61369.745933  1518.847732
    9017.7570  26792.756000  61597.442540  1508.751296
    9018.4240  26784.670000  61911.113857  1500.647541
    9019.1420  26765.576000  62225.755167  1487.535888
    9019.8090  26768.477000  62559.384890  1480.417680
    9020.4770  26766.369000  62877.979277  1474.289253
    9021.1960  26728.258000  63133.552136  1463.155431
    9021.9140  26712.139000  63403.103179  1453.013690
    9022.6340  26700.014000  63638.624518  1444.864564
    9023.3530  26684.881000  63821.131506  1434.706574
    9024.1230  26664.742000  63962.601974  1429.542651
    9024.8430  26638.598000  64009.052371  1424.368442
    9025.6140  26679.447000  64166.482421  1424.188238
    9026.3850  26681.289000  64185.885418  1424.999315
    9027.2080  26662.125000  64098.266444  1430.803707
    9027.9790  26643.955000  63980.618120  1440.600723
    9028.7500  26656.777000  63885.946954  1454.389776
    9029.5740  26650.594000  63717.257184  1466.171291
    9030.3970  26620.404000  63464.537759  1476.944297
    9031.2210  26602.207000  63213.790551  1489.710018
    9032.0450  26572.006000  62920.023747  1498.468304
    9032.9200  26572.795000  62657.228142  1513.217302
    9033.7950  26584.580000  62416.411678  1520.960812
    9034.6200  26579.357000  62163.571556  1526.696364
    9035.4960  26562.129000  61858.714084  1529.423672
    9036.4230  26516.895000  61498.819347  1527.143470
    9037.2980  26468.654000  61171.908024  1523.854629
    9038.2270  26407.406000  60801.970690  1520.559260
    9039.1040  26147.152000  60011.005743  1509.256242
    9040.0320  26112.891000  59640.018521  1499.945539
    9040.9600  26581.623000  60563.010103  1507.626127
    9041.9400  26540.350000  60218.975872  1501.300176
    9042.8690  26543.070000  60014.913920  1499.965483
    9043.8510  26713.783000  60206.826894  1503.623331
    9044.8320  26713.490000  60027.721544  1502.274783
    9045.8130  26708.191000  59862.585706  1501.917609
    9046.7940  26703.887000  59714.432126  1502.553111
    9047.7750  26698.574000  59599.247952  1498.179877
    9048.8110  26673.256000  59460.041498  1493.800458
    9049.7920  26629.930000  59313.810515  1485.411995
    9050.8260  26686.600000  59403.554626  1482.017102
    9051.8610  26658.262000  59339.276440  1481.614574
    9052.9460  26632.916000  59299.975592  1482.203593
    9053.9820  26671.566000  59429.643703  1484.783773
    9055.0690  26653.209000  59448.295770  1480.358008
    9056.1560  26660.846000  59554.916138  1477.924660
    9057.2430  26671.475000  59704.514795  1476.482607
    9058.3320  26687.100000  59908.092885  1475.033354
    9059.4190  26685.717000  60110.640860  1469.575933
    9060.5600  26707.326000  60430.165543  1470.111737
    9061.6480  26698.932000  60713.669148  1469.639106
    9062.7890  26711.529000  61090.145596  1469.159649
    9063.9300  26696.119000  61424.599549  1465.671353
    9065.1230  26699.705000  61847.020004  1465.175333
    9066.2660  26715.283000  62292.429319  1467.672626
    9067.4590  26737.855000  62775.806445  1470.162225
    9068.6020  26751.422000  63218.161843  1468.644154
    9069.7960  26720.980000  63541.492941  1461.118334
    9071.0430  26731.533000  63974.801534  1455.584124
    9072.2370  26739.080000  64379.081937  1461.043294
    9073.4350  26739.619000  64710.341293  1468.493468
    9074.6820  26741.152000  65053.574421  1475.937162
    9075.9300  26769.680000  65417.781101  1493.372677
    9077.1790  26800.199000  65764.969152  1511.800482
    9078.4280  26797.715000  65987.123380  1532.219936
    9079.6770  26789.223000  66171.263313  1546.632953
    9080.9790  26813.723000  66400.375308  1561.037569
    9082.2810  26828.219000  66560.458254  1578.434734
    9083.5840  26818.707000  66609.523739  1586.824051
    9084.8870  26872.188000  66775.560206  1605.206082
    9086.1910  26852.664000  66733.577291  1611.580273
    9087.4940  26877.133000  66748.568459  1615.946496
    9088.8510  26904.596000  66745.529886  1625.304734
    9090.2080  26911.051000  66660.476435  1630.655726
    9091.5650  26894.502000  66523.394255  1633.999481
    9092.9240  26902.945000  66412.278740  1648.335449
    9094.2810  26938.381000  66384.146647  1662.662566
    9095.6920  26843.813000  66024.993920  1662.983646
    9097.0510  26813.236000  65803.810448  1666.295245
    9098.4640  26860.654000  65789.611062  1679.600453
    9099.8750  26839.064000  65602.377533  1675.899336
    9101.3410  26841.469000  65466.125593  1672.187822
    9102.7540  26820.867000  65268.844164  1665.470730
    9104.1680  26849.260000  65208.541180  1653.743424
    9105.6350  26883.645000  65169.215931  1645.011227
    9107.1020  26906.023000  65128.866248  1636.269351
    9108.5690  26908.396000  65074.486299  1623.521502
    9110.0370  26946.762000  65141.090574  1619.765753
    9111.5590  26951.123000  65155.665865  1613.000753
    9113.0270  26956.475000  65220.212479  1608.228766
    9114.5500  26949.822000  65278.738924  1607.448907
    9116.0720  26947.162000  65386.243068  1612.661445
    9117.5960  26963.496000  65558.721419  1615.866348
    9119.1190  26984.824000  65751.174493  1621.063692
    9120.6960  26972.145000  65910.599239  1622.253556
    9122.2220  27002.459000  66170.009787  1613.436435
    9123.8000  26986.768000  66358.387902  1598.611071
    9125.3780  27046.070000  66734.750098  1589.777085
    9126.9570  27038.365000  66957.077741  1571.937262
    9128.5890  27057.654000  67271.382461  1563.087329
    9130.1700  27047.936000  67522.670398  1553.231189
    9131.8030  27105.213000  67942.928840  1557.367773
    9133.3860  27123.482000  68276.166133  1562.496320
    9135.0210  27134.744000  68582.374701  1568.617367
    9136.7090  27110.002000  68819.555212  1580.728691
    9138.3450  27141.252000  69188.715915  1593.834558
    9139.9810  27131.496000  69435.854327  1610.932763
    9141.6720  27131.732000  69702.965633  1626.022527
    9143.3630  27064.965000  69791.057608  1639.105862
    9145.0550  26868.188000  69515.120117  1659.179635
    9146.7470  26931.406000  69966.154284  1689.246573
    9148.4390  27309.619000  71135.171034  1725.305066
    9150.1870  27355.824000  71401.162414  1760.356155
    9151.8810  27344.021000  71512.130623  1784.401553
    9153.6290  27382.215000  71775.070989  1818.436771
    9155.3780  27212.400000  71451.989724  1843.464629
    9157.1270  27371.580000  71992.881698  1877.485251
    9158.9300  27367.752000  72057.750368  1894.499876
    9160.6820  27389.920000  72157.596155  1889.504381
    9162.4860  27620.080000  72759.417251  1890.503781
    9164.2910  27758.232000  73255.208037  1882.493720
    9166.0980  27736.381000  73241.986672  1864.475621
    9167.9040  27740.521000  73308.736954  1844.449384
    9169.7130  27775.656000  73454.454950  1827.417108
    9171.5740  27741.783000  73431.146749  1813.375795
    9173.3840  27771.906000  73553.831108  1807.328041
    9175.2460  27754.021000  73574.480303  1802.272251
    9177.1100  27775.129000  73705.098800  1802.208721
    9178.9760  27808.232000  73879.699800  1806.136606
    9180.8950  27829.328000  74052.279881  1812.058204
    9182.7610  27830.416000  74172.830943  1818.970940
    9184.6830  27803.500000  74235.361895  1826.876380
    9186.6040  27821.576000  74412.856906  1831.775536
    9188.5250  27817.646000  74554.333443  1835.665650
    9190.4490  27863.709000  74825.795820  1847.546771
    9192.3740  27879.768000  75030.227410  1857.421182
    9194.3530  27865.818000  75174.635217  1867.289430
    9196.2780  27866.861000  75363.005026  1871.148671
    9198.2590  27918.900000  75703.370117  1878.000560
    9200.2400  27935.932000  75946.697498  1877.844817
    9202.2230  27965.957000  76227.016648  1871.682856
    9204.2050  27952.975000  76413.290006  1856.510470
    9206.2430  27915.986000  76535.562313  1842.332625
    9208.2280  27949.992000  76840.812624  1839.145227
    9210.2680  27978.992000  77145.013497  1843.951721
    9212.3080  27996.984000  77413.159853  1848.748253
    9214.3510  28016.971000  77679.348246  1861.538756
    9216.3930  28028.951000  77928.515637  1869.322265
    9218.4890  28065.924000  78220.610282  1888.096486
    9220.5330  28048.893000  78363.649535  1900.863328
    9222.6330  28085.852000  78661.745878  1918.623424
    9224.7330  28084.807000  78852.794537  1943.376169
    9226.8340  28073.754000  79023.803603  1969.120741
    9228.9370  28070.695000  79241.816817  1992.856725
    9231.0400  28104.631000  79543.764499  2015.586796
    9233.1980  28093.559000  79746.697726  2040.307094
    9235.3580  28121.480000  80054.663664  2065.021622
    9237.4640  28130.396000  80287.560803  2078.727027
    9239.6260  28175.307000  80639.367118  2091.423545
    9241.8430  28152.209000  80799.261366  2095.115795
    9244.0060  28152.105000  81006.073210  2095.799555
    9246.1710  28197.994000  81341.865976  2102.474198
    9248.3920  28209.879000  81578.621461  2107.141386
    9250.6120  28204.756000  81763.392272  2114.800784
    9252.8350  28218.625000  82005.081998  2119.453391
    9255.0590  28245.490000  82291.827287  2128.098374
    9257.2830  28269.348000  82573.442390  2132.734818
    9259.5100  28292.199000  82864.116280  2136.363561
    9261.7900  28268.043000  83026.758216  2135.985097
    9264.0720  28259.883000  83228.366824  2137.599001
    9266.3550  28277.715000  83508.968946  2136.205317
    9268.6420  28268.539000  83706.488060  2138.803349
    9270.9270  28276.359000  83963.995714  2140.394343
    9273.2150  28305.172000  84266.512504  2145.978325
    9275.5020  28294.979000  84447.950015  2147.551527
    9277.8470  28295.777000  84684.414029  2151.119858
    9280.1910  28345.570000  85060.924362  2160.681664
    9282.5390  28316.357000  85196.267445  2164.232129
    9284.8870  28300.139000  85388.695112  2169.777692
    9287.2360  28329.912000  85700.032736  2173.314035
    9289.6420  28356.680000  86003.382641  2178.844365
    9291.9930  28340.441000  86142.663108  2187.365377
    9294.4020  28367.195000  86439.986191  2195.878890
    9296.8110  28347.943000  86585.249349  2199.386527
    9299.2210  28370.686000  86848.431183  2210.883986
    9301.6330  28364.422000  87019.707270  2220.376139
    9304.0460  28365.150000  87235.842035  2230.858032
    9306.4610  28408.873000  87571.055436  2250.335972
    9308.9320  28352.588000  87626.136340  2260.801312
    9311.4030  28388.299000  87953.305403  2280.263607
    9313.8780  28347.002000  88061.397937  2295.714847
    9316.3530  28345.699000  88277.415775  2313.159428
    9318.8290  28393.389000  88670.507459  2336.596390
    9321.3070  28396.072000  88899.527340  2343.027334
    9323.8420  28361.750000  89040.507478  2348.449695
    9326.3220  28401.422000  89422.400381  2355.860879
    9328.8590  28392.086000  89644.374129  2366.266613
    9331.3970  28388.744000  89896.295037  2377.666938
    9333.9380  28434.396000  90343.180826  2399.056510
    9336.4800  28591.041000  91096.047506  2428.440828
    9339.0780  28547.680000  91274.885387  2443.815804
    9341.6230  28561.313000  91608.779193  2460.186376
    9344.2250  28552.938000  91880.501682  2474.543261
    9346.8270  28539.559000  92153.269154  2479.897330
    9349.4320  28554.172000  92484.036849  2492.242867
    9352.0380  28449.777000  92454.748760  2491.578193
    9354.6460  28427.379000  92685.471108  2501.910725
    9357.2560  28424.973000  92978.203040  2512.233228
    9359.9220  28429.559000  93287.807038  2516.546220
    9362.5340  28409.141000  93508.464310  2522.854402
    9365.2030  28399.715000  93771.044085  2532.150926
    9367.8750  28348.283000  93902.636538  2536.442386
    9370.5480  28374.844000  94264.152857  2552.726434
    9373.2780  28374.400000  94555.723767  2556.002029
    9375.9540  28382.949000  94876.170938  2564.269333
    9378.6330  28367.490000  95097.698761  2571.531848
    9381.3680  28361.027000  95367.124675  2576.783496
    9384.1040  28335.557000  95555.616251  2583.030823
    9386.8430  28393.080000  96020.955442  2595.264540
    9389.5840  28389.596000  96282.322986  2600.494814
    9392.3260  28346.105000  96421.733839  2607.718317
    9395.1260  28348.609000  96714.076798  2621.933345
    9397.8720  28311.107000  96858.408039  2631.139971
    9400.6750  28382.598000  97376.626828  2655.336028
    9403.4800  28371.082000  97620.878244  2660.530096
    9406.2300  28288.561000  97598.148016  2672.711548
    9409.0950  28308.031000  97944.358333  2687.887436
    9411.9060  28300.496000  98178.606086  2707.060422
    9414.7180  28277.955000  98365.735389  2731.220355
    9417.5890  28261.408000  98593.880825  2748.370523
    9420.4040  28253.854000  98817.021575  2763.519015
    9423.2780  28233.293000  99037.036320  2777.651772
    9426.1540  28217.727000  99250.146682  2787.785066
    9429.0320  28207.152000  99497.205944  2798.905822
    9431.9120  28211.572000  99808.190429  2804.020411
    9434.7940  28215.986000  100093.194476  2812.128575
    9437.7330  28158.393000  100184.197126  2821.228597
    9440.6190  28158.795000  100490.052166  2826.317815
    9443.5630  28147.189000  100747.006849  2834.403450
    9446.5090  28139.576000  101039.950087  2844.479175
    9449.4560  28131.957000  101343.748625  2866.547058
    9452.4060  28073.332000  101465.626563  2874.607337
    9455.3570  28081.701000  101814.461730  2891.661222
    9458.3690  28083.064000  102158.209998  2902.706826
    9461.3230  28043.420000  102290.010932  2868.743197
    9464.3390  28016.770000  102668.798578  2946.774727
    9467.3540  27988.111000  102883.554809  2957.797232
    9470.3750  27941.447000  103072.244166  2962.812962
    9473.3950  27924.777000  103354.865121  2971.819404
    9476.4180  27943.102000  103778.557193  2982.817642
    9479.4420  27908.418000  103987.153113  2991.809427
    9482.5270  27904.729000  104351.725874  2999.792659
    9485.5560  27862.033000  104550.367161  3015.769247
    9488.6440  27843.332000  104817.895114  3023.740110
    9491.7330  27820.623000  105079.434187  3032.700814
    9494.8260  27834.908000  105498.941157  3042.653256
    9497.9210  27776.186000  105600.386878  3049.598781
    9501.0190  27815.459000  106085.878994  3069.537643
    9504.1170  27751.723000  106170.355174  3078.467562
    9507.2750  27742.982000  106479.758634  3086.392420
    9510.3790  27750.236000  106831.127992  3105.306259
    9513.5430  27690.482000  106959.445012  3119.209936
    9516.7070  27672.723000  107210.822402  3132.110939
    9519.8750  27606.955000  107307.091058  3146.002923
    9523.0450  27578.182000  107526.352048  3164.885737
    9526.2170  27523.402000  107652.626778  3190.761569
    9529.4490  27342.617000  107285.933638  3192.634849
    9532.6260  27571.824000  108491.126011  3226.494913
    9535.8620  27485.025000  108499.255467  3236.344043
    9539.1010  27474.221000  108805.419726  3249.191340
    9542.2850  27436.408000  108991.608224  3264.030856
    9545.5280  27385.592000  109136.679348  3274.859724
    9548.8320  27353.766000  109367.767406  3291.683763
    9552.0800  27285.936000  109448.859607  3307.499298
    9555.3310  27254.098000  109678.887836  3317.305626
    9558.6430  27242.254000  109965.999639  3334.108155
    9561.8980  27186.404000  110100.985583  3349.901677
    9565.2140  27169.547000  110368.939649  3368.682608
    9568.5330  27144.684000  110638.842573  3383.457874
    9571.8530  27102.814000  110829.785472  3398.229498
    9575.1770  27047.939000  110946.689387  3413.990392
    9578.5030  27032.057000  111233.595948  3424.743088
    9581.8900  26995.168000  111461.349219  3444.490118
    9585.2200  26970.273000  111735.252875  3462.227816
    9588.6110  26930.371000  111940.970493  3475.956466
    9591.9480  26914.463000  112279.780899  3483.682069
    9595.3450  26897.549000  112588.566221  3504.395954
    9598.7440  26887.627000  112929.329224  3529.104719
    9602.1460  26795.699000  112964.023234  3537.804686
    9605.6090  26753.766000  113216.650987  3552.495266
    9609.0170  26724.826000  113497.288428  3568.181014
    9612.4270  26725.879000  113896.979010  3577.858177
    9615.8970  26645.926000  113965.556683  3588.528638
    9619.3710  26645.965000  114380.170830  3610.191189
    9622.7880  26632.000000  114702.692745  3626.842737
    9626.2690  26573.027000  114855.254465  3643.488780
    9629.7500  26571.049000  115231.740975  3665.127926
    9633.2340  26516.063000  115384.231232  3673.756471
    9636.7800  26490.070000  115673.659450  3700.381586
    9640.2710  26451.072000  115902.078852  3710.997420
    9643.8210  26430.068000  116211.557481  3728.605494
    9647.3170  26385.057000  116386.881514  3757.203111
    9650.8750  26312.039000  116479.185418  3773.792980
    9654.4350  26326.016000  116900.559168  3797.381126
    9657.9970  26280.984000  117072.878710  3814.957925
    9661.5630  26237.947000  117250.154109  3832.524489
    9665.1320  26165.904000  117234.498449  3848.091031
    9668.7040  26143.855000  117521.720575  3863.641654
    9672.3370  26092.799000  117746.896502  3887.189395
    9675.9140  26069.736000  118046.085265  3904.727901
    9679.5530  26014.668000  118192.249623  3928.259816
    9683.1360  25986.592000  118469.401578  3941.781241
    9686.7800  25943.510000  118704.532097  3959.296991
    9690.4300  25908.422000  118967.588396  3969.805454
    9694.0800  25853.326000  119120.699198  3979.305307
    9697.7950  25832.227000  119416.671793  4002.794815
    9701.4510  25775.117000  119552.734770  4023.280317
    9705.1110  25708.004000  119633.677114  4039.756360
    9708.8340  25739.883000  120210.654351  4058.228940
    9712.5000  25755.756000  120666.692363  4086.693207
    9716.2290  25687.623000  120762.557208  4100.144761
    9719.9610  25592.482000  120775.522479  4106.592612
    9723.6960  25605.338000  121260.344953  4130.030721
    9727.4350  25531.184000  121316.229939  4148.461767
    9731.1750  25528.025000  121713.980275  4170.883435
    9734.9790  25439.859000  121735.808922  4189.298075
    9738.7270  25419.688000  122047.582829  4205.709437
    9742.4770  25364.510000  122220.397632  4221.109267
    9746.2910  25308.324000  122387.024256  4233.501183
    9750.1080  25260.133000  122595.753044  4253.883720
    9753.9290  25226.936000  122883.445991  4274.261387
    9757.6920  25197.730000  123157.116617  4292.631341
    9761.5790  25153.520000  123404.780056  4306.996731
    9765.4090  25117.303000  123653.335778  4327.348381
    9769.2420  25079.080000  123894.950415  4344.697050
    9773.0780  25027.850000  124084.427993  4358.034726
    9776.9790  25014.613000  124482.005846  4388.366991
    9780.8210  24951.371000  124586.564388  4403.689757
    9784.7290  24936.121000  124934.974116  4437.004093
    9788.6390  24886.865000  125140.506027  4447.313270
    9792.5530  24838.604000  125342.884233  4468.612938
    9796.4070  24816.336000  125720.368871  4497.906858
    9800.3900  24718.061000  125689.702500  4506.190829
    9804.3130  24707.779000  126052.077282  4531.468836
    9808.2400  24685.490000  126398.374495  4558.737046
    9812.1700  24653.197000  126678.652911  4580.996669
    9816.1660  24590.896000  126802.948278  4595.255201
    9820.1030  24555.590000  127057.218821  4620.498164
    9824.1050  24616.275000  127836.462401  4656.740824
    9828.1100  24524.955000  127844.690353  4673.971650
    9832.1190  24439.629000  127838.909803  4684.199114
    9836.1320  24375.297000  127929.099644  4694.413578
    9840.1460  24376.957000  128407.178991  4722.617972
    9844.1670  24352.611000  128728.311593  4747.822404
    9848.1890  24333.258000  129060.470305  4777.015870
    9852.2770  24269.900000  129222.522565  4799.203177

