#XDI/1.1  GSE/1.0
# Column.1: energy eV
# Column.2: itrans
# Column.3: i0
# Scan.end_time: 2008-04-12 03:47:51
# Scan.start_time: 2008-04-12 03:33:32
# Element.symbol:  W
# Element.edge:  L3
# Mono.d_spacing:  3.13555
# Mono.name: Si 111
# Sample.temperature: room temperature
# Sample.formula: WO3
# Sample.name: WO3
# Sample.prep: powder on tape, many layers
# Facility.Name:  APS
# Beamline.Name:  13-BM-D
# Beamline.xray_source:  bending magnet
# Beamline.Storage_Ring_Current: 101.246
# Beamline.I0: 5 nA/V
# Beamline.I1: 5 nA/V
# ScanParameters.E0: 10207.0
# ScanParameters.Legend: Start       Stop       Step       Npts       Time   Kspace?
# ScanParameters.Region1: -150.00    -25.000     5.0000     26.000     1.0000   0
# ScanParameters.Region2: -25.000     30.000    0.25000     221.00     1.0000   0
# ScanParameters.Region3: 2.8061     17.000   0.049979     285.00     1.0000   1
#-------------------------
#  energy  itrans  i0
   10057.000    318949.20     80808.70
   10062.000    320441.20     80918.70
   10067.000    318288.20     80267.70
   10072.000    319076.20     80318.70
   10077.000    317931.20     79889.70
   10082.000    319223.20     80037.70
   10087.000    318833.20     79771.70
   10092.000    317826.20     79371.70
   10097.000    318819.20     79474.70
   10102.000    320575.20     79741.70
   10107.000    321303.20     79756.70
   10112.000    321394.20     79629.70
   10117.000    322468.20     79748.70
   10122.000    324200.20     80035.70
   10127.000    324201.20     79905.70
   10132.000    323166.20     79491.70
   10137.000    323974.20     79560.70
   10142.000    325658.20     79854.70
   10147.000    325960.20     79793.70
   10152.000    325014.20     79452.70
   10157.000    325621.20     79504.70
   10162.000    327042.20     79801.70
   10167.000    326947.20     79741.70
   10172.000    325522.20     79410.70
   10177.000    325515.20     79523.70
   10182.000    325719.20     79812.70
   10182.250    326338.20     80000.70
   10182.500    326655.20     80094.70
   10182.750    326600.20     80107.70
   10183.000    326364.20     80075.70
   10183.250    326376.20     80071.70
   10183.500    326296.20     80073.70
   10183.750    326323.20     80100.70
   10184.000    326221.20     80116.70
   10184.250    326139.20     80123.70
   10184.500    325961.20     80080.70
   10184.750    325942.20     80115.70
   10185.000    326105.20     80171.70
   10185.250    325893.20     80153.70
   10185.500    325797.20     80153.70
   10185.750    325504.20     80118.70
   10186.000    325491.20     80136.70
   10186.250    325131.20     80080.70
   10186.500    324921.20     80066.70
   10186.750    324864.20     80077.70
   10187.000    324631.20     80064.70
   10187.250    324676.20     80117.70
   10187.500    324447.20     80083.70
   10187.750    324322.20     80109.70
   10188.000    324082.20     80104.70
   10188.250    323773.20     80065.70
   10188.500    323569.20     80068.70
   10188.750    323175.20     80018.70
   10189.000    322870.20     79997.70
   10189.250    322429.20     79937.70
   10189.500    322068.20     79910.70
   10189.750    321905.20     79925.70
   10190.000    321494.20     79868.70
   10190.250    321391.20     79888.70
   10190.500    321267.20     79939.70
   10190.750    321656.20     80077.70
   10191.000    321583.20     80157.70
   10191.250    321539.20     80226.70
   10191.500    320744.20     80102.70
   10191.750    320179.20     80048.70
   10192.000    319826.20     80037.70
   10192.250    319236.20     79981.70
   10192.500    320172.20     80281.70
   10192.750    320095.20     80359.70
   10193.000    319959.20     80407.70
   10193.250    319509.20     80402.70
   10193.500    319294.20     80458.70
   10193.750    318725.20     80441.70
   10194.000    318364.20     80441.70
   10194.250    317621.20     80383.70
   10194.500    316806.20     80322.70
   10194.750    316508.20     80360.70
   10195.000    316099.20     80386.70
   10195.250    315577.20     80408.70
   10195.500    314707.20     80327.70
   10195.750    314128.20     80314.70
   10196.000    313345.20     80298.70
   10196.250    312919.20     80339.70
   10196.500    312169.20     80349.70
   10196.750    311347.20     80353.70
   10197.000    310595.20     80371.70
   10197.250    309479.20     80340.70
   10197.500    308480.20     80278.70
   10197.750    307426.20     80290.70
   10198.000    306485.20     80295.70
   10198.250    305311.20     80271.70
   10198.500    304105.20     80254.70
   10198.750    302720.20     80227.70
   10199.000    301539.20     80237.70
   10199.250    300399.20     80267.70
   10199.500    298691.20     80242.70
   10199.750    297406.20     80280.70
   10200.000    295490.20     80257.70
   10200.250    293772.20     80244.70
   10200.500    291738.20     80258.70
   10200.750    289806.20     80242.70
   10201.000    287627.20     80261.70
   10201.250    285748.20     80286.70
   10201.500    283093.20     80234.70
   10201.750    280639.20     80282.70
   10202.000    278313.20     80291.70
   10202.250    275156.20     80251.70
   10202.500    272081.20     80155.70
   10202.750    268227.20     80114.70
   10203.000    265160.20     80152.70
   10203.250    261041.20     80243.70
   10203.500    257238.20     80280.70
   10203.750    252055.20     80250.70
   10204.000    247567.20     80256.70
   10204.250    241633.20     80223.70
   10204.500    235352.20     80154.70
   10204.750    229906.20     80185.70
   10205.000    222717.20     80198.70
   10205.250    216492.20     80194.70
   10205.500    208030.20     80210.70
   10205.750    200270.20     80181.70
   10206.000    190079.20     80106.70
   10206.250    181091.20     80155.70
   10206.500    170343.20     80186.70
   10206.750    161344.20     80220.70
   10207.000    149543.20     80196.70
   10207.250    138602.20     80178.70
   10207.500    129083.20     80109.70
   10207.750    118771.20     80025.70
   10208.000    111182.20     80039.70
   10208.250    102078.20     79894.70
   10208.500     95599.20     79814.70
   10208.750     88932.20     79694.70
   10209.000     84348.20     79518.70
   10209.250     80382.20     79588.70
   10209.500     78334.20     79759.70
   10209.750     76814.20     80148.70
   10210.000     76191.20     80449.70
   10210.250     75775.20     80699.70
   10210.500     75599.20     80835.70
   10210.750     75329.20     80707.70
   10211.000     75022.20     80537.70
   10211.250     74771.20     80374.70
   10211.500     74482.20     80229.70
   10211.750     74285.20     80141.70
   10212.000     74228.20     80100.70
   10212.250     74398.20     80150.70
   10212.500     74845.20     80098.70
   10212.750     75641.20     80107.70
   10213.000     77009.20     80035.70
   10213.250     78783.20     80095.70
   10213.500     81405.20     80044.70
   10213.750     84052.20     80007.70
   10214.000     88071.20     80008.70
   10214.250     92480.20     80011.70
   10214.500     96800.20     80020.70
   10214.750    102226.20     80059.70
   10215.000    107409.20     80102.70
   10215.250    113547.20     80030.70
   10215.500    118450.20     80044.70
   10215.750    124436.20     80103.70
   10216.000    129427.20     80048.70
   10216.250    134783.20     80016.70
   10216.500    139910.20     80289.70
   10216.750    145373.20     80405.70
   10217.000    149508.20     80399.70
   10217.250    154571.20     80421.70
   10217.500    158590.20     80461.70
   10217.750    163570.20     80452.70
   10218.000    168179.20     80520.70
   10218.250    171918.20     80480.70
   10218.500    175983.20     80464.70
   10218.750    179248.20     80456.70
   10219.000    182554.20     80449.70
   10219.250    185066.20     80383.70
   10219.500    187640.20     80340.70
   10219.750    189832.20     80334.70
   10220.000    192071.20     80326.70
   10220.250    193891.20     80376.70
   10220.500    195646.20     80289.70
   10220.750    197149.20     80332.70
   10221.000    198726.20     80347.70
   10221.250    200077.20     80426.70
   10221.500    201064.20     80344.70
   10221.750    202020.20     80367.70
   10222.000    202886.20     80342.70
   10222.250    203643.20     80371.70
   10222.500    204250.20     80363.70
   10222.750    204855.20     80369.70
   10223.000    205473.20     80392.70
   10223.250    205995.20     80363.70
   10223.500    206478.20     80375.70
   10223.750    206949.20     80341.70
   10224.000    207440.20     80366.70
   10224.250    207976.20     80357.70
   10224.500    208337.20     80354.70
   10224.750    208896.20     80379.70
   10225.000    209125.20     80339.70
   10225.250    209545.20     80362.70
   10225.500    209965.20     80390.70
   10225.750    210147.20     80339.70
   10226.000    210378.20     80338.70
   10226.250    210479.20     80300.70
   10226.500    210657.20     80290.70
   10226.750    210947.20     80327.70
   10227.000    211158.20     80351.70
   10227.250    211252.20     80354.70
   10227.500    211498.20     80421.70
   10227.750    211434.20     80362.70
   10228.000    211419.20     80341.70
   10228.250    211338.20     80303.70
   10228.500    211398.20     80292.70
   10228.750    211451.20     80311.70
   10229.000    211198.20     80164.70
   10229.250    211438.20     80236.70
   10229.500    211656.20     80247.70
   10229.750    211618.20     80214.70
   10230.000    211967.20     80230.70
   10230.250    212219.20     80257.70
   10230.500    212520.20     80266.70
   10230.750    212701.20     80252.70
   10231.000    213173.20     80315.70
   10231.250    213458.20     80312.70
   10231.500    213756.20     80310.70
   10231.750    213967.20     80256.70
   10232.000    214179.20     80208.70
   10232.250    214252.20     80137.70
   10232.500    214710.20     80149.70
   10232.750    215260.20     80228.70
   10233.000    215414.20     80161.70
   10233.250    215875.20     80230.70
   10233.500    216184.20     80235.70
   10233.750    216380.20     80195.70
   10234.000    216545.20     80144.70
   10234.250    216606.20     80099.70
   10234.500    216650.20     80032.70
   10234.750    216677.20     79961.70
   10235.000    216673.20     79895.70
   10235.250    216642.20     79768.70
   10235.500    216971.20     79784.70
   10235.750    217436.20     79877.70
   10236.000    218022.20     80048.70
   10236.250    218332.20     80167.70
   10236.500    219048.20     80376.70
   10236.750    219344.20     80488.70
   10237.000    219266.20     80410.70
   10238.080    219118.20     80271.67
   10239.180    218988.10     80234.60
   10240.290    218566.90     80158.47
   10241.430    218867.70     80342.30
   10242.580    218685.40     80295.06
   10243.750    218788.00     80268.79
   10244.950    218838.60     80245.46
   10246.160    218860.10     80238.08
   10247.390    218540.50     80149.65
   10248.640    218370.90     80212.16
   10249.910    217635.20     80175.63
   10251.190    216997.40     80246.05
   10252.500    215944.60     80298.41
   10253.830    215360.70     80621.73
   10255.170    214151.70     80741.00
   10256.540    213216.70     80896.21
   10257.920    212080.60     81022.38
   10259.320    210746.50     81051.48
   10260.740    209616.20     81091.55
   10262.180    208532.90     81143.56
   10263.640    207538.60     81176.52
   10265.120    207080.20     81271.43
   10266.610    206496.70     81195.29
   10268.130    207046.10     81398.10
   10269.660    207888.50     81533.86
   10271.220    209108.80     81657.56
   10272.790    210516.00     81763.22
   10274.380    211989.20     81915.83
   10275.990    213200.30     81997.38
   10277.630    214391.40     82137.88
   10279.270    215337.30     82167.34
   10280.940    216327.30     82308.74
   10282.630    217204.10     82424.09
   10284.340    218031.90     82578.40
   10286.060    219163.60     82881.65
   10287.810    219605.20     82945.84
   10289.570    219942.80     83024.00
   10291.350    220566.30     83251.09
   10293.150    220693.80     83323.14
   10294.970    221180.20     83546.14
   10296.810    221473.50     83687.09
   10298.670    221490.70     83685.98
   10300.550    222229.90     83896.83
   10302.450    222842.00     83966.63
   10304.360    224445.10     84371.37
   10306.300    225287.10     84454.06
   10308.250    226420.00     84619.70
   10310.220    227610.80     84799.30
   10312.210    228689.60     84985.84
   10314.220    229937.30     85276.33
   10316.250    230836.00     85445.77
   10318.300    231925.60     85761.16
   10320.370    231904.10     85729.49
   10322.460    232345.50     85904.78
   10324.560    232627.90     86041.02
   10326.690    233467.30     86388.20
   10328.830    234069.50     86632.34
   10331.000    235321.70     87056.42
   10333.180    236030.80     87273.46
   10335.380    236550.90     87422.44
   10337.600    237132.90     87606.38
   10339.840    237789.80     87799.26
   10342.100    238574.60     88078.09
   10344.380    238858.40     88213.87
   10346.670    239911.20     88612.60
   10348.990    240492.80     88855.27
   10351.320    240865.40     88994.91
   10353.670    241595.90     89265.48
   10356.050    242361.40     89519.01
   10358.440    243515.80     89887.48
   10360.850    244357.10     90145.91
   10363.280    244693.40     90214.29
   10365.730    246370.50     90788.61
   10368.190    246854.70     90933.88
   10370.680    247733.70     91255.11
   10373.190    248343.70     91471.28
   10375.710    249523.70     91826.40
   10378.250    250307.50     92038.48
   10380.820    251355.30     92268.49
   10383.400    252893.00     92674.46
   10386.000    254113.70     92906.38
   10388.620    256028.30     93393.25
   10391.260    257349.80     93719.06
   10393.920    258387.30     93962.84
   10396.590    259654.70     94316.55
   10399.290    261128.00     94726.21
   10402.010    262106.30     94948.83
   10404.740    262656.50     95015.39
   10407.490    264152.60     95397.91
   10410.260    265032.70     95555.37
   10413.060    268074.70     96521.78
   10415.870    269434.60     96883.14
   10418.700    270569.50     97151.45
   10421.540    272341.30     97589.71
   10424.410    273464.00     97837.92
   10427.300    274490.70     98074.08
   10430.200    276196.30     98481.19
   10433.130    277647.80     98873.24
   10436.070    279023.30     99200.25
   10439.030    280624.70     99597.20
   10442.010    279880.10     99111.11
   10445.020    286276.30    101253.00
   10448.040    288006.50    101688.80
   10451.070    289439.70    102116.50
   10454.130    290933.80    102516.20
   10457.210    292125.80    102851.90
   10460.300    293467.70    103251.50
   10463.420    294479.60    103589.00
   10466.550    295725.40    104007.50
   10469.710    297088.10    104505.00
   10472.880    297661.80    104709.40
   10476.070    298861.40    105128.70
   10479.280    300609.90    105672.00
   10482.510    302487.40    106231.30
   10485.750    304191.80    106683.50
   10489.020    306058.20    107185.60
   10492.310    308230.40    107781.70
   10495.610    309357.70    107973.70
   10498.940    310626.80    108178.70
   10502.280    312389.90    108634.70
   10505.640    314174.90    109061.60
   10509.020    316431.80    109679.40
   10512.420    318687.70    110330.20
   10515.840    320445.50    110840.90
   10519.280    322695.30    111485.60
   10522.740    323949.90    111768.30
   10526.220    325696.60    112196.80
   10529.710    327060.10    112485.40
   10533.230    329208.60    113032.90
   10536.760    331224.00    113498.30
   10540.310    335500.30    114725.70
   10543.880    338021.60    115370.00
   10547.470    339761.80    115761.30
   10551.080    341131.00    116001.50
   10554.710    342741.10    116303.70
   10558.360    343753.10    116426.80
   10562.030    348405.00    117765.90
   10565.710    349223.90    117868.90
   10569.420    350128.80    117958.90
   10573.140    354584.50    119267.80
   10576.880    357037.20    119898.70
   10580.650    359512.80    120523.50
   10584.430    361724.30    121107.30
   10588.230    363034.80    121391.00
   10592.050    365562.30    122035.70
   10595.880    367284.60    122436.30
   10599.740    368590.90    122692.90
   10603.620    371030.10    123340.40
   10607.510    374451.30    124305.90
   10611.430    378116.40    125322.30
   10615.360    380098.40    125767.70
   10619.310    382608.30    126409.00
   10623.280    384570.20    126844.30
   10627.270    385749.10    126986.50
   10631.280    387320.80    127327.70
   10635.310    389636.50    127834.80
   10639.360    393292.10    128836.90
   10643.420    396741.70    129771.90
   10647.510    399811.20    130575.80
   10651.610    403583.60    131624.80
   10655.740    406308.00    132328.60
   10659.880    407127.30    132374.40
   10664.040    408708.50    132642.20
   10668.220    410612.70    133087.90
   10672.420    414834.80    134179.60
   10676.640    418834.80    135200.20
   10680.880    422169.70    136042.70
   10685.140    424894.60    136624.20
   10689.410    425583.50    136603.70
   10693.710    427489.20    136971.10
   10698.020    432468.90    138251.50
   10702.350    435600.50    138956.80
   10706.710    441073.10    140454.00
   10711.080    444346.60    141256.20
   10715.470    443818.00    140858.40
   10719.880    446905.40    141578.50
   10724.300    450473.70    142429.50
   10728.750    454037.90    143266.50
   10733.220    457238.10    144006.50
   10737.700    460420.20    144739.40
   10742.210    465006.20    145886.20
   10746.730    468367.20    146664.00
   10751.270    471349.10    147328.80
   10755.830    476648.90    148669.50
   10760.410    478201.70    148880.10
   10765.010    480482.40    149312.70
   10769.630    481723.00    149447.30
   10774.270    485934.60    150438.80
   10778.930    490166.10    151455.20
   10783.600    494663.60    152568.60
   10788.290    499080.90    153617.90
   10793.010    502560.20    154417.20
   10797.740    505728.50    155096.50
   10802.490    506547.60    155043.60
   10807.260    508956.80    155533.80
   10812.050    506971.80    154603.90
   10816.860    517520.80    157535.90
   10821.690    520779.70    158212.90
   10826.540    523690.50    158798.80
   10831.400    529373.30    160216.70
   10836.290    535492.00    161727.50
   10841.190    538337.60    162289.30
   10846.110    538463.20    162066.10
   10851.060    540519.70    162314.80
   10856.020    542437.10    162536.40
   10861.000    548846.50    164089.00
   10866.000    555861.80    165851.50
   10871.010    561428.10    167173.00
   10876.050    563457.30    167487.40
   10881.110    563997.40    167332.80
   10886.180    562169.40    166392.10
   10891.280    576649.40    170377.40
   10896.390    582037.30    171611.60
   10901.520    583344.10    171604.80
   10906.670    585277.90    171795.90
   10911.850    588323.60    172350.00
   10917.040    593148.30    173399.00
   10922.240    599273.90    174832.00
   10927.470    603926.40    175833.90
   10932.720    608312.80    176677.80
   10937.980    611809.20    177335.60
   10943.270    613301.50    177381.40
   10948.570    616127.80    177845.10
   10953.890    619408.90    178413.80
   10959.240    628355.10    180546.40
   10964.600    633444.10    181633.90
   10969.980    635196.10    181778.50
   10975.380    638993.00    182458.90
   10980.790    644993.90    183801.30
   10986.230    652337.70    185487.70
   10991.690    656026.40    186146.00
   10997.160    650671.10    184351.30
   11002.650    668525.60    188881.50
   11008.170    668552.10    188498.70
   11013.700    674919.60    189861.80
   11019.250    678991.00    190642.80
   11024.820    685136.30    191965.80
   11030.410    691818.60    193383.80
   11036.020    692739.80    193241.70
   11041.640    695367.90    193530.60
   11047.290    699189.90    194162.40
   11052.960    707484.90    196046.10
   11058.640    714317.80    197534.80
   11064.340    716165.70    197609.50
   11070.070    720140.50    198321.10
   11075.810    726131.20    199472.60
   11081.570    733006.90    200922.10
   11087.350    736557.40    201477.60
   11093.150    739973.00    201946.00
   11098.960    746558.40    203243.30
   11104.800    749727.80    203699.60
   11110.660    757926.20    205480.90
   11116.530    762013.40    206109.10
   11122.420    768216.60    207349.30
   11128.340    771875.80    207880.30
   11134.270    781417.80    209961.40
   11140.220    792569.80    212430.40
   11146.190    795775.80    212828.30
   11152.180    795315.60    212170.20
   11158.190    799026.40    212671.10
   11164.210    805148.10    213803.90
   11170.260    814807.80    215907.60
   11176.320    824924.40    218076.30
   11182.410    827442.90    218212.90
   11188.510    831110.40    218730.50
   11194.630    835987.80    219483.10
   11200.770    840377.10    220123.50
   11206.930    844683.40    220759.00
   11213.110    861613.60    224628.40
   11219.310    869118.70    226107.70
   11225.530    875190.80    227121.00
   11231.770    875069.80    226600.20
   11238.020    874996.70    226019.40
   11244.290    892461.60    230020.50
   11250.590    898241.40    230937.60
   11256.900    902815.10    231617.70
   11263.230    904463.80    231521.60
   11269.580    915384.40    233746.60
   11275.950    924320.90    235457.50
   11282.340    926432.40    235474.30
   11288.750    927212.80    235143.10
   11295.170    939255.10    237649.80
   11301.620    948698.40    239413.50
   11308.080    957072.60    240953.10
