#XDI/1.1  GSE/1.0
# Column.1: energy eV
# Column.2: itrans
# Column.3: i0
# Scan.end_time: 2008-04-12 09:08:43
# Scan.start_time: 2008-04-12 08:54:25
# Element.symbol:  W
# Element.edge:  L3
# Mono.d_spacing:  3.13555
# Mono.name: Si 111
# Sample.temperature: room temperature
# Sample.formula: WO3
# Sample.name: WO3
# Sample.prep: powder on tape, many layers
# Facility.Name:  APS
# Beamline.Name:  13-BM-D
# Beamline.xray_source:  bending magnet
# Beamline.Storage_Ring_Current: 101.246
# Beamline.I0: 5 nA/V
# Beamline.I1: 5 nA/V
# ScanParameters.E0: 10207.0
# ScanParameters.Legend: Start       Stop       Step       Npts       Time   Kspace?
# ScanParameters.Region1: -150.00    -25.000     5.0000     26.000     1.0000   0
# ScanParameters.Region2: -25.000     30.000    0.25000     221.00     1.0000   0
# ScanParameters.Region3: 2.8061     17.000   0.049979     285.00     1.0000   1
#-------------------------
#  energy  itrans  i0
   10057.000    319238.20     80735.70
   10062.000    320756.20     80857.70
   10067.000    316813.20     79776.70
   10072.000    317816.20     79858.70
   10077.000    317679.20     79699.70
   10082.000    319663.20     80031.70
   10087.000    319454.20     79811.70
   10092.000    318662.20     79469.70
   10097.000    319074.20     79390.70
   10102.000    320591.20     79610.70
   10107.000    320768.20     79528.70
   10112.000    320054.20     79172.70
   10117.000    321312.20     79338.70
   10122.000    323504.20     79740.70
   10127.000    323906.20     79688.70
   10132.000    322468.20     79155.70
   10137.000    323443.20     79287.70
   10142.000    325136.20     79564.70
   10147.000    325116.20     79460.70
   10152.000    324637.20     79213.70
   10157.000    325005.20     79220.70
   10162.000    326912.20     79615.70
   10167.000    326489.20     79493.70
   10172.000    324715.20     79065.70
   10177.000    324823.20     79213.70
   10182.000    325368.20     79595.70
   10182.250    327804.20     80223.70
   10182.500    328489.20     80397.70
   10182.750    328228.20     80369.70
   10183.000    327762.20     80270.70
   10183.250    327574.20     80261.70
   10183.500    327359.20     80204.70
   10183.750    327017.20     80171.70
   10184.000    326925.20     80148.70
   10184.250    327096.20     80229.70
   10184.500    327110.20     80256.70
   10184.750    327078.20     80280.70
   10185.000    326906.20     80248.70
   10185.250    326744.20     80252.70
   10185.500    326491.20     80194.70
   10185.750    326134.20     80145.70
   10186.000    325862.20     80124.70
   10186.250    325644.20     80119.70
   10186.500    325710.20     80153.70
   10186.750    326043.20     80271.70
   10187.000    326149.20     80323.70
   10187.250    325774.20     80274.70
   10187.500    325436.20     80231.70
   10187.750    325162.20     80200.70
   10188.000    324704.20     80141.70
   10188.250    324676.20     80187.70
   10188.500    324282.20     80110.70
   10188.750    323972.20     80098.70
   10189.000    323450.20     80010.70
   10189.250    323541.20     80106.70
   10189.500    323416.20     80119.70
   10189.750    322800.20     80055.70
   10190.000    322487.20     80019.70
   10190.250    322512.20     80086.70
   10190.500    322359.20     80127.70
   10190.750    322692.20     80261.70
   10191.000    322363.20     80260.70
   10191.250    321816.20     80190.70
   10191.500    321417.20     80177.70
   10191.750    321073.20     80154.70
   10192.000    320755.20     80154.70
   10192.250    320526.20     80184.70
   10192.500    320254.20     80187.70
   10192.750    319667.20     80125.70
   10193.000    319222.20     80100.70
   10193.250    318799.20     80111.70
   10193.500    318482.20     80125.70
   10193.750    317951.20     80110.70
   10194.000    317832.20     80176.70
   10194.250    317078.20     80132.70
   10194.500    316339.20     80078.70
   10194.750    315756.20     80070.70
   10195.000    315113.20     80052.70
   10195.250    314636.20     80064.70
   10195.500    313884.20     80046.70
   10195.750    313813.20     80169.70
   10196.000    312980.20     80128.70
   10196.250    312209.20     80097.70
   10196.500    311323.20     80070.70
   10196.750    310415.20     80066.70
   10197.000    309640.20     80079.70
   10197.250    308633.20     80045.70
   10197.500    307857.20     80085.70
   10197.750    306775.20     80069.70
   10198.000    305846.20     80074.70
   10198.250    304743.20     80096.70
   10198.500    303678.20     80099.70
   10198.750    302641.20     80152.70
   10199.000    301013.20     80111.70
   10199.250    299809.20     80096.70
   10199.500    297793.20     80003.70
   10199.750    296414.20     79995.70
   10200.000    294347.20     79969.70
   10200.250    292790.20     80005.70
   10200.500    290641.20     79996.70
   10200.750    288989.20     80054.70
   10201.000    286586.20     80025.70
   10201.250    284538.20     80009.70
   10201.500    281976.20     79961.70
   10201.750    279312.20     80007.70
   10202.000    276955.20     80028.70
   10202.250    274024.20     80057.70
   10202.500    271290.20     80042.70
   10202.750    267449.20     80084.70
   10203.000    263985.20     80012.70
   10203.250    259281.20     79958.70
   10203.500    255291.20     79961.70
   10203.750    250147.20     79950.70
   10204.000    245531.20     79927.70
   10204.250    239721.20     79955.70
   10204.500    233258.20     79925.70
   10204.750    227876.20     79944.70
   10205.000    220625.20     80022.70
   10205.250    214236.20     80004.70
   10205.500    205329.20     79943.70
   10205.750    197787.20     80027.70
   10206.000    187397.20     79944.70
   10206.250    178927.20     80240.70
   10206.500    168118.20     80288.70
   10206.750    158863.20     80271.70
   10207.000    146886.20     80217.70
   10207.250    135938.20     80184.70
   10207.500    126740.20     80186.70
   10207.750    116621.20     80166.70
   10208.000    109201.20     80175.70
   10208.250    100495.20     80121.70
   10208.500     94160.20     79990.70
   10208.750     87648.20     79736.70
   10209.000     83594.20     79720.70
   10209.250     79959.20     79840.70
   10209.500     78173.20     80007.70
   10209.750     76900.20     80440.70
   10210.000     76330.20     80688.70
   10210.250     76010.20     80899.70
   10210.500     75745.20     80935.70
   10210.750     75567.20     80879.70
   10211.000     75272.20     80711.70
   10211.250     75052.20     80606.70
   10211.500     74778.20     80457.70
   10211.750     74624.20     80387.70
   10212.000     74531.20     80270.70
   10212.250     74705.20     80250.70
   10212.500     75298.20     80223.70
   10212.750     76206.20     80240.70
   10213.000     77815.20     80256.70
   10213.250     79716.20     80252.70
   10213.500     82477.20     80175.70
   10213.750     85484.20     80264.70
   10214.000     89532.20     80201.70
   10214.250     94162.20     80202.70
   10214.500     98484.20     80182.70
   10214.750    104195.20     80144.70
   10215.000    109237.20     80224.70
   10215.250    115465.20     80227.70
   10215.500    120403.20     80236.70
   10215.750    126364.20     80234.70
   10216.000    131411.20     80225.70
   10216.250    136657.20     80164.70
   10216.500    141483.20     80184.70
   10216.750    146379.20     80107.70
   10217.000    150540.20     80117.70
   10217.250    155631.20     80199.70
   10217.500    159597.20     80211.70
   10217.750    164167.20     80144.70
   10218.000    168932.20     80178.70
   10218.250    172457.20     80132.70
   10218.500    176460.20     80129.70
   10218.750    179731.20     80153.70
   10219.000    182973.20     80099.70
   10219.250    185548.20     80128.70
   10219.500    188080.20     80064.70
   10219.750    190229.20     80128.70
   10220.000    192438.20     80112.70
   10220.250    194096.20     80107.70
   10220.500    196018.20     80116.70
   10220.750    197321.20     80099.70
   10221.000    198875.20     80155.70
   10221.250    199980.20     80092.70
   10221.500    201113.20     80098.70
   10221.750    201848.20     80056.70
   10222.000    202685.20     80056.70
   10222.250    203363.20     80044.70
   10222.500    203885.20     79987.70
   10222.750    204757.20     80086.70
   10223.000    205223.20     80063.70
   10223.250    205726.20     80068.70
   10223.500    206207.20     80065.70
   10223.750    206774.20     80085.70
   10224.000    207179.20     80075.70
   10224.250    207763.20     80103.70
   10224.500    207993.20     80044.70
   10224.750    208323.20     79993.70
   10225.000    208899.20     80071.70
   10225.250    209257.20     80076.70
   10225.500    209668.20     80127.70
   10225.750    209912.20     80112.70
   10226.000    209958.20     80036.70
   10226.250    210391.20     80109.70
   10226.500    210297.20     80013.70
   10226.750    210386.20     79987.70
   10227.000    210693.20     80063.70
   10227.250    210595.20     79984.70
   10227.500    210675.20     79973.70
   10227.750    210872.20     80035.70
   10228.000    210831.20     79998.70
   10228.250    210858.20     79983.70
   10228.500    210966.20     80016.70
   10228.750    211283.20     80082.70
   10229.000    211132.20     80000.70
   10229.250    211092.20     79947.70
   10229.500    211246.20     79946.70
   10229.750    211342.20     79952.70
   10230.000    211693.20     79994.70
   10230.250    212906.20     80364.70
   10230.500    213297.20     80429.70
   10230.750    213718.20     80471.70
   10231.000    213691.20     80351.70
   10231.250    214124.20     80393.70
   10231.500    213977.20     80233.70
   10231.750    214473.20     80308.70
   10232.000    214682.20     80213.70
   10232.250    215167.20     80299.70
   10232.500    215442.20     80245.70
   10232.750    215808.20     80282.70
   10233.000    216213.20     80305.70
   10233.250    216479.20     80280.70
   10233.500    216915.20     80340.70
   10233.750    216858.20     80206.70
   10234.000    217145.20     80203.70
   10234.250    217230.20     80163.70
   10234.500    217218.20     80072.70
   10234.750    217315.20     80017.70
   10235.000    217274.20     79929.70
   10235.250    217423.20     79894.70
   10235.500    217797.20     79919.70
   10235.750    218400.20     80070.70
   10236.000    218796.20     80182.70
   10236.250    219240.20     80324.70
   10236.500    219745.20     80499.70
   10236.750    219950.20     80558.70
   10237.000    219975.20     80521.70
   10238.080    219702.20     80351.67
   10239.180    219429.10     80262.60
   10240.290    219270.90     80287.47
   10241.430    219686.70     80502.30
   10242.580    219410.40     80421.06
   10243.750    219449.00     80358.79
   10244.950    219483.60     80339.46
   10246.160    219625.10     80372.08
   10247.390    219320.50     80321.65
   10248.640    219031.90     80332.16
   10249.910    218200.20     80268.63
   10251.190    217474.40     80305.05
   10252.500    216705.60     80450.41
   10253.830    215277.70     80436.73
   10255.170    213939.70     80516.00
   10256.540    212848.70     80621.21
   10257.920    211596.60     80701.38
   10259.320    210322.50     80743.48
   10260.740    209150.20     80812.55
   10262.180    208198.90     80902.56
   10263.640    207251.60     80924.52
   10265.120    206833.20     81048.43
   10266.610    206489.70     81064.29
   10268.130    206859.10     81175.10
   10269.660    207663.50     81249.86
   10271.220    208661.80     81312.56
   10272.790    210283.00     81494.22
   10274.380    211216.20     81453.83
   10275.990    212870.30     81719.38
   10277.630    214030.40     81829.88
   10279.270    215208.30     81932.34
   10280.940    216196.30     82103.74
   10282.630    217354.10     82315.09
   10284.340    217564.90     82252.40
   10286.060    218118.60     82344.65
   10287.810    218707.20     82469.84
   10289.570    218997.80     82522.00
   10291.350    219522.30     82700.09
   10293.150    220131.80     82947.14
   10294.970    220666.20     83186.14
   10296.810    221039.50     83381.09
   10298.670    221314.70     83491.98
   10300.550    221661.90     83548.83
   10302.450    222519.00     83721.63
   10304.360    223843.10     83999.37
   10306.300    224813.10     84115.06
   10308.250    225844.00     84250.70
   10310.220    227403.80     84572.30
   10312.210    228431.60     84751.84
   10314.220    229523.30     84976.33
   10316.250    230605.00     85214.77
   10318.300    231417.60     85447.16
   10320.370    231924.10     85605.49
   10322.460    232643.50     85867.78
   10324.560    233246.90     86127.02
   10326.690    233547.30     86260.20
   10328.830    234324.50     86584.34
   10331.000    234873.70     86745.42
   10333.180    235346.80     86907.46
   10335.380    235810.90     87032.44
   10337.600    236327.90     87166.38
   10339.840    237181.80     87445.26
   10342.100    238054.60     87751.09
   10344.380    238519.40     87947.87
   10346.670    239137.20     88187.60
   10348.990    240192.80     88581.27
   10351.320    242361.40     89384.91
   10353.670    243020.90     89610.48
   10356.050    243527.40     89778.01
   10358.440    244190.80     89972.48
   10360.850    244507.10     90033.91
   10363.280    244709.40     90070.29
   10365.730    246635.50     90737.61
   10368.190    247576.70     91054.88
   10370.680    248149.70     91284.11
   10373.190    249403.70     91707.28
   10375.710    250674.70     92107.40
   10378.250    251589.50     92363.48
   10380.820    252659.30     92597.49
   10383.400    254263.00     93002.46
   10386.000    255485.70     93249.38
   10388.620    257183.30     93683.25
   10391.260    258561.80     94006.06
   10393.920    259537.30     94218.84
   10396.590    260584.70     94492.55
   10399.290    262032.00     94907.21
   10402.010    263028.30     95139.83
   10404.740    264535.50     95552.39
   10407.490    266225.60     96012.91
   10410.260    267285.70     96233.37
   10413.060    268968.70     96689.78
   10415.870    270132.60     96970.14
   10418.700    271517.50     97318.45
   10421.540    273236.30     97751.71
   10424.410    274605.00     98076.92
   10427.300    275717.70     98336.08
   10430.200    277450.30     98747.19
   10433.130    278705.80     99046.24
   10436.070    280255.30     99435.25
   10439.030    281780.70     99816.20
   10442.010    281105.10     99343.11
   10445.020    287611.30    101539.00
   10448.040    287994.50    101506.80
   10451.070    289021.70    101747.50
   10454.130    290348.80    102129.20
   10457.210    291717.80    102530.90
   10460.300    293119.70    102965.50
   10463.420    294212.60    103320.00
   10466.550    295119.40    103631.50
   10469.710    296424.10    104106.00
   10472.880    298363.80    104751.40
   10476.070    299169.40    105023.70
   10479.280    300942.90    105604.00
   10482.510    301999.40    105858.30
   10485.750    303056.80    106109.50
   10489.020    304706.20    106537.60
   10492.310    306470.40    106956.70
   10495.610    308882.70    107575.70
   10498.940    312173.80    108516.70
   10502.280    313963.90    108962.70
   10505.640    314996.90    109130.60
   10509.020    316160.80    109367.40
   10512.420    318263.70    109968.20
   10515.840    319759.50    110378.90
   10519.280    321684.30    110938.60
   10522.740    324215.90    111674.30
   10526.220    326333.60    112211.80
   10529.710    328175.10    112667.40
   10533.230    329807.60    113048.90
   10536.760    330832.00    113187.30
   10540.310    333352.30    113809.70
   10543.880    335315.60    114243.00
   10547.470    337373.80    114750.30
   10551.080    339766.00    115325.50
   10554.710    342565.10    116050.70
   10558.360    342946.10    115922.80
   10562.030    347823.00    117364.90
   10565.710    349928.90    117878.90
   10569.420    349925.80    117661.90
   10573.140    354253.50    118960.80
   10576.880    355033.20    119037.70
   10580.650    357243.80    119579.50
   10584.430    359235.30    120046.30
   10588.230    361696.80    120706.00
   10592.050    365283.30    121717.70
   10595.880    368212.60    122511.30
   10599.740    371377.90    123429.90
   10603.620    374336.10    124186.40
   10607.510    375261.30    124325.90
   10611.430    376160.40    124426.30
   10615.360    378645.40    125094.70
   10619.310    380892.30    125633.00
   10623.280    383865.20    126388.30
   10627.270    387511.10    127375.50
   10631.280    390620.80    128165.70
   10635.310    394539.50    129222.80
   10639.360    395877.10    129449.90
   10643.420    397123.70    129661.90
   10647.510    398641.20    130018.80
   10651.610    400513.60    130406.80
   10655.740    402416.00    130826.60
   10659.880    406337.30    131891.40
   10664.040    410777.50    133081.20
   10668.220    415018.70    134223.90
   10672.420    415058.80    133978.60
   10676.640    417138.80    134430.20
   10680.880    420535.70    135262.70
   10685.140    423639.60    136002.20
   10689.410    427918.50    137085.70
   10693.710    431477.20    137931.10
   10698.020    432483.90    137999.50
   10702.350    435179.50    138582.80
   10706.710    436973.10    138930.00
   10711.080    440239.60    139721.20
   10715.470    446510.00    141398.40
   10719.880    450132.40    142274.50
   10724.300    451710.70    142501.50
   10728.750    455110.90    143335.50
   10733.220    457409.10    143824.50
   10737.700    460389.20    144449.40
   10742.210    461942.20    144648.20
   10746.730    465180.20    145398.00
   10751.270    468489.10    146159.80
   10755.830    470120.90    146381.50
   10760.410    474137.70    147410.10
   10765.010    478914.40    148592.70
   10769.630    484251.00    149928.30
   10774.270    485478.60    150060.80
   10778.930    488529.10    150700.20
   10783.600    491043.60    151169.60
   10788.290    493161.90    151591.90
   10793.010    496786.20    152372.20
   10797.740    499726.50    153021.50
   10802.490    505804.60    154551.60
   10807.260    510075.80    155559.80
   10812.050    510870.80    155476.90
   10816.860    520733.80    158193.90
   10821.690    523692.70    158793.90
   10826.540    526309.50    159256.80
   10831.400    526102.30    158958.70
   10836.290    527124.00    158969.50
   10841.190    530020.60    159521.30
   10846.110    536555.20    161173.10
   10851.060    542932.70    162708.80
   10856.020    553057.10    165366.40
   10861.000    554469.50    165444.00
   10866.000    555527.80    165434.50
   10871.010    556485.10    165427.00
   10876.050    560172.30    166216.40
   10881.110    564629.40    167188.80
   10886.180    565754.40    167088.10
   10891.280    577798.40    170389.40
   10896.390    578853.30    170370.60
   10901.520    585782.10    172000.80
   10906.670    588894.90    172522.90
   10911.850    594252.60    173751.00
   10917.040    595567.30    173760.00
   10922.240    599249.90    174459.00
   10927.470    601838.40    174887.90
   10932.720    607089.80    175991.80
   10937.980    612060.20    177026.60
   10943.270    618934.50    178642.40
   10948.570    625426.80    180157.10
   10953.890    630770.90    181304.80
   10959.240    630376.10    180806.40
   10964.600    634624.10    181630.90
   10969.980    641648.10    183265.50
   10975.380    646857.00    184399.90
   10980.790    650003.90    184868.30
   10986.230    649421.70    184298.70
   10991.690    653963.40    185188.00
   10997.160    658268.10    186087.30
   11002.650    675492.60    190439.50
   11008.170    676303.10    190233.70
   11013.700    676650.60    189956.80
   11019.250    679449.00    190341.80
   11024.820    682335.30    190745.80
   11030.410    687260.60    191705.80
   11036.020    695141.80    193483.70
   11041.640    700138.90    194427.60
   11047.290    708326.90    196266.40
   11052.960    711872.90    196832.10
   11058.640    714750.80    197227.80
   11064.340    719248.70    198034.50
   11070.070    724983.50    199190.10
   11075.810    728520.20    199743.60
   11081.570    732320.90    200361.10
   11087.350    741472.40    202392.60
   11093.150    750629.00    204397.00
   11098.960    752147.40    204444.30
   11104.800    758848.80    205730.60
   11110.660    764593.20    206843.90
   11116.530    768321.40    207360.10
   11122.420    781594.60    210475.30
   11128.340    784729.80    210859.30
   11134.270    784806.80    210406.40
   11140.220    787524.80    210624.40
   11146.190    794596.80    212068.30
   11152.180    805460.60    214454.20
   11158.190    813044.40    215932.10
   11164.210    816908.10    216458.90
   11170.260    818595.80    216425.60
   11176.320    827349.40    218169.30
   11182.410    837430.90    220333.90
   11188.510    836607.40    219641.50
   11194.630    838638.80    219673.10
   11200.770    847774.10    221522.50
   11206.930    853922.40    222622.00
   11213.110    860955.60    223923.40
   11219.310    864897.70    224455.70
   11225.530    874082.80    226307.00
   11231.770    884023.80    228386.20
   11238.020    883653.70    227741.40
   11244.290    891697.60    229279.50
   11250.590    902487.40    231504.60
   11256.900    908583.10    232500.70
   11263.230    910625.80    232554.60
   11269.580    915635.40    233245.60
   11275.950    922983.90    234570.50
   11282.340    934361.40    236910.30
   11288.750    935827.80    236740.10
   11295.170    942165.10    237790.80
   11301.620    948428.40    238791.50
   11308.080    957264.60    240431.10
