#XDI/1.1  GSE/1.0
# Column.1: energy eV
# Column.2: itrans
# Column.3: i0
# Scan.end_time: 2008-04-12 06:28:19
# Scan.start_time: 2008-04-12 06:14:00
# Element.symbol:  W
# Element.edge:  L3
# Facility.Name:  APS
# Beamline.Name:  13-BM-D
# Beamline.xray_source:  bending magnet
# Mono.d_spacing:  3.13555
# Mono.name: Si 111
# Beamline.Storage_Ring_Current: 101.847 || S:SRcurrentAI.VAL
# Beamline.FOE_Mono_angle_readback: 11.3361 || 13BMA:m17.RBV
# Beamline.Mono_Energy_drive_val: 10057.0000 || 13BMA:E:Energy.VAL
# Beamline.Mono_Energy_readback: 10052.0004 || 13BMA:E:E_RBV
# Beamline.Mono_Beam_Offset: 20.0000 || 13BMA:E:height.VAL
# Beamline.I0_sensitivity_value: 5 || 13BMD:A3sens_num.VAL
# Beamline.I0_sensitivity_value: nA/V || 13BMD:A3sens_unit.VAL
# Beamline.I1_sensitivity_value: 10 || 13BMD:A2sens_num.VAL
# Beamline.I1_sensitivity_value: nA/V || 13BMD:A2sens_unit.VAL
# Beamline.FOE_Mono_Yout: 10.5096 || 13BMA:m10.VAL
# Beamline.FOE_Mono_Yin: 10.7131 || 13BMA:m11.VAL
# Beamline.FOE_Mono_Yup: 9.7703 || 13BMA:m12.VAL
# Beamline.FOE_Mono_Cage_Y: 0.000 || 13BMA:m13.VAL
# Beamline.FOE_Mono_Z: 52.096 || 13BMA:m14.VAL
# Beamline.FOE_Mono_angle: 11.3376 || 13BMA:m17.VAL
# Beamline.BMD_Horiz_Width: 5.000 || 13BMD:BMDHt2.C
# Beamline.BMD_Horiz_Center: -2.000 || 13BMD:BMDHt2.D
# Beamline.BMD_Vertical_Width: 0.500 || 13BMD:BMDVt2.C
# Beamline.BMD_Vertical_Center: -19.950 || 13BMD:BMDVt2.D
# Beamline.Sample_X: 326.174 || 13BMD:m70.VAL
# Beamline.Sample_Z__focus: 48.000 || 13BMD:m33.VAL
# Beamline.Sample_Y__height: 36.000 || 13BMD:m34.VAL
# ScanParameters.Start: Scan.Member: Value
# ScanParameters.E0: 10207.0
# ScanParameters.Legend: Start       Stop       Step       Npts       Time   Kspace?
# ScanParameters.Region1: -150.00    -25.000     5.0000     26.000     1.0000   0
# ScanParameters.Region2: -25.000     30.000    0.25000     221.00     1.0000   0
# ScanParameters.Region3: 2.8061     17.000   0.049979     285.00     1.0000   1
# ScanParameters.End: here
#-------------------------
#  energy  itrans  i0
   10057.000    316868.20     80259.70 
   10062.000    316301.20     79866.70 
   10067.000    316179.20     79696.70 
   10072.000    314118.20     79034.70 
   10077.000    314988.20     79113.70 
   10082.000    314628.20     78884.70 
   10087.000    317055.20     79318.70 
   10092.000    319580.20     79791.70 
   10097.000    320415.20     79827.70 
   10102.000    320004.20     79572.70 
   10107.000    320628.20     79571.70 
   10112.000    321327.20     79593.70 
   10117.000    321528.20     79500.70 
   10122.000    320960.20     79229.70 
   10127.000    321564.20     79213.70 
   10132.000    324026.20     79692.70 
   10137.000    324545.20     79686.70 
   10142.000    323534.20     79300.70 
   10147.000    323856.20     79259.70 
   10152.000    325610.20     79582.70 
   10157.000    326066.20     79596.70 
   10162.000    325354.20     79359.70 
   10167.000    325967.20     79469.70 
   10172.000    327119.20     79763.70 
   10177.000    326313.20     79665.70 
   10182.000    323964.20     79355.70 
   10182.250    324271.20     79475.70 
   10182.500    324550.20     79562.70 
   10182.750    324974.20     79688.70 
   10183.000    325298.20     79799.70 
   10183.250    326036.20     80006.70 
   10183.500    325932.20     80006.70 
   10183.750    326171.20     80063.70 
   10184.000    326099.20     80054.70 
   10184.250    325618.20     79965.70 
   10184.500    325601.20     79988.70 
   10184.750    325311.20     79941.70 
   10185.000    325075.20     79898.70 
   10185.250    325050.20     79940.70 
   10185.500    324803.20     79903.70 
   10185.750    324831.20     79943.70 
   10186.000    324694.20     79941.70 
   10186.250    324424.20     79910.70 
   10186.500    324362.20     79910.70 
   10186.750    324218.20     79916.70 
   10187.000    325184.20     80204.70 
   10187.250    325219.20     80227.70 
   10187.500    325343.20     80312.70 
   10187.750    325136.20     80305.70 
   10188.000    325120.20     80336.70 
   10188.250    324952.20     80359.70 
   10188.500    324659.20     80329.70 
   10188.750    324595.20     80358.70 
   10189.000    324078.20     80274.70 
   10189.250    323639.20     80236.70 
   10189.500    323278.20     80184.70 
   10189.750    322888.20     80143.70 
   10190.000    322589.20     80131.70 
   10190.250    322443.20     80148.70 
   10190.500    322150.20     80138.70 
   10190.750    322322.20     80245.70 
   10191.000    322250.20     80306.70 
   10191.250    322178.20     80365.70 
   10191.500    321865.20     80357.70 
   10191.750    321483.20     80347.70 
   10192.000    320931.20     80307.70 
   10192.250    320276.20     80216.70 
   10192.500    319995.20     80226.70 
   10192.750    319565.20     80226.70 
   10193.000    319496.20     80292.70 
   10193.250    319000.20     80258.70 
   10193.500    318890.20     80325.70 
   10193.750    318078.20     80227.70 
   10194.000    317547.20     80205.70 
   10194.250    316809.20     80172.70 
   10194.500    316571.20     80234.70 
   10194.750    315858.20     80168.70 
   10195.000    315381.20     80199.70 
   10195.250    314721.20     80175.70 
   10195.500    313917.20     80127.70 
   10195.750    313528.20     80187.70 
   10196.000    312590.20     80120.70 
   10196.250    312044.20     80120.70 
   10196.500    311146.20     80104.70 
   10196.750    310552.20     80157.70 
   10197.000    309795.20     80171.70 
   10197.250    308758.20     80162.70 
   10197.500    307872.20     80142.70 
   10197.750    306936.20     80169.70 
   10198.000    305965.20     80169.70 
   10198.250    304991.20     80202.70 
   10198.500    303640.20     80130.70 
   10198.750    302160.20     80109.70 
   10199.000    300760.20     80091.70 
   10199.250    299698.20     80099.70 
   10199.500    298016.20     80087.70 
   10199.750    296690.20     80107.70 
   10200.000    294697.20     80078.70 
   10200.250    293096.20     80107.70 
   10200.500    290880.20     80071.70 
   10200.750    289007.20     80076.70 
   10201.000    286703.20     80069.70 
   10201.250    284653.20     80046.70 
   10201.500    282101.20     80020.70 
   10201.750    279473.20     80005.70 
   10202.000    277115.20     80015.70 
   10202.250    273791.20     79968.70 
   10202.500    271037.20     79953.70 
   10202.750    267193.20     79946.70 
   10203.000    264415.20     80099.70 
   10203.250    259696.20     80018.70 
   10203.500    255932.20     80058.70 
   10203.750    250854.20     80060.70 
   10204.000    246199.20     80048.70 
   10204.250    240417.20     80050.70 
   10204.500    234049.20     80010.70 
   10204.750    228640.20     79980.70 
   10205.000    221155.20     79989.70 
   10205.250    215012.20     80011.70 
   10205.500    206322.20     79990.70 
   10205.750    198576.20     79991.70 
   10206.000    188561.20     79967.70 
   10206.250    179534.20     80022.70 
   10206.500    168625.20     79975.70 
   10206.750    159451.20     79988.70 
   10207.000    147566.20     79889.70 
   10207.250    136613.20     79852.70 
   10207.500    127559.20     79908.70 
   10207.750    117210.20     79810.70 
   10208.000    109757.20     79836.70 
   10208.250    100960.20     79790.70 
   10208.500     94500.20     79663.70 
   10208.750     87984.20     79496.70 
   10209.000     83738.20     79446.70 
   10209.250     79717.20     79358.70 
   10209.500     77917.20     79601.70 
   10209.750     76510.20     80005.70 
   10210.000     75965.20     80318.70 
   10210.250     75589.20     80542.70 
   10210.500     75423.20     80690.70 
   10210.750     75178.20     80586.70 
   10211.000     75235.20     80760.70 
   10211.250     74997.20     80649.70 
   10211.500     74802.20     80594.70 
   10211.750     74651.20     80543.70 
   10212.000     74547.20     80429.70 
   10212.250     74668.20     80399.70 
   10212.500     75213.20     80389.70 
   10212.750     75967.20     80293.70 
   10213.000     77521.20     80326.70 
   10213.250     79226.20     80237.70 
   10213.500     82066.20     80308.70 
   10213.750     84888.20     80341.70 
   10214.000     88815.20     80213.70 
   10214.250     93459.20     80290.70 
   10214.500     97699.20     80233.70 
   10214.750    103486.20     80290.70 
   10215.000    108356.20     80274.70 
   10215.250    114552.20     80254.70 
   10215.500    119562.20     80300.70 
   10215.750    125489.20     80277.70 
   10216.000    130445.20     80206.70 
   10216.250    135769.20     80143.70 
   10216.500    140554.20     80182.70 
   10216.750    145818.20     80277.70 
   10217.000    149925.20     80267.70 
   10217.250    154852.20     80258.70 
   10217.500    158972.20     80299.70 
   10217.750    163582.20     80209.70 
   10218.000    168334.20     80249.70 
   10218.250    172019.20     80255.70 
   10218.500    176003.20     80211.70 
   10218.750    179161.20     80225.70 
   10219.000    182533.20     80207.70 
   10219.250    185008.20     80208.70 
   10219.500    187753.20     80192.70 
   10219.750    189844.20     80204.70 
   10220.000    191980.20     80133.70 
   10220.250    193797.20     80199.70 
   10220.500    195852.20     80251.70 
   10220.750    197101.20     80212.70 
   10221.000    198677.20     80241.70 
   10221.250    199781.20     80189.70 
   10221.500    201031.20     80233.70 
   10221.750    201825.20     80218.70 
   10222.000    202709.20     80218.70 
   10222.250    203230.20     80158.70 
   10222.500    203720.20     80083.70 
   10222.750    204459.20     80140.70 
   10223.000    205062.20     80173.70 
   10223.250    205604.20     80142.70 
   10223.500    206138.20     80198.70 
   10223.750    206603.20     80135.70 
   10224.000    207196.20     80215.70 
   10224.250    207439.20     80098.70 
   10224.500    208148.20     80219.70 
   10224.750    208540.20     80199.70 
   10225.000    208809.20     80172.70 
   10225.250    209066.20     80127.70 
   10225.500    209193.20     80076.70 
   10225.750    209459.20     80035.70 
   10226.000    209690.20     80054.70 
   10226.250    209742.20     80002.70 
   10226.500    210106.20     80058.70 
   10226.750    210322.20     80072.70 
   10227.000    210559.20     80121.70 
   10227.250    210514.20     80059.70 
   10227.500    210689.20     80086.70 
   10227.750    210661.20     80062.70 
   10228.000    210836.20     80072.70 
   10228.250    210586.20     79984.70 
   10228.500    210874.20     80080.70 
   10228.750    211043.20     80091.70 
   10229.000    211033.20     80072.70 
   10229.250    211360.20     80148.70 
   10229.500    211610.20     80208.70 
   10229.750    211574.20     80142.70 
   10230.000    211592.20     80080.70 
   10230.250    211746.20     80055.70 
   10230.500    211910.20     80024.70 
   10230.750    212007.20     79969.70 
   10231.000    212476.20     80025.70 
   10231.250    212744.20     80005.70 
   10231.500    213294.20     80103.70 
   10231.750    213384.20     80011.70 
   10232.000    213868.20     80058.70 
   10232.250    214045.20     80012.70 
   10232.500    214519.20     80063.70 
   10232.750    214706.20     80016.70 
   10233.000    214956.20     79953.70 
   10233.250    215384.20     80008.70 
   10233.500    215784.20     80028.70 
   10233.750    215814.20     79944.70 
   10234.000    216140.20     79953.70 
   10234.250    216214.20     79895.70 
   10234.500    216379.20     79872.70 
   10234.750    216334.20     79798.70 
   10235.000    217480.20     80116.70 
   10235.250    217311.20     79962.70 
   10235.500    217682.20     79983.70 
   10235.750    218089.20     80069.70 
   10236.000    218709.20     80263.70 
   10236.250    219247.20     80450.70 
   10236.500    219765.20     80614.70 
   10236.750    219889.20     80629.70 
   10237.000    220022.20     80667.70 
   10238.080    219693.20     80452.67 
   10239.180    219719.10     80478.60 
   10240.290    219514.90     80487.47 
   10241.430    219691.70     80630.30 
   10242.580    219603.40     80569.06 
   10243.750    219403.00     80476.79 
   10244.950    219380.60     80417.46 
   10246.160    219407.10     80400.08 
   10247.390    219268.50     80413.65 
   10248.640    219106.90     80465.16 
   10249.910    218617.20     80524.63 
   10251.190    217660.40     80483.05 
   10252.500    216415.60     80446.41 
   10253.830    215385.70     80590.73 
   10255.170    214026.70     80667.00 
   10256.540    212778.70     80730.21 
   10257.920    211250.60     80704.38 
   10259.320    209850.50     80683.48 
   10260.740    208856.20     80810.55 
   10262.180    207993.90     80912.56 
   10263.640    207328.60     81077.52 
   10265.120    207063.20     81247.43 
   10266.610    206613.70     81239.29 
   10268.130    206882.10     81300.10 
   10269.660    207782.50     81443.86 
   10271.220    209062.80     81581.56 
   10272.790    210313.00     81639.22 
   10274.380    211967.20     81849.83 
   10275.990    212914.30     81837.38 
   10277.630    214120.40     81968.88 
   10279.270    215331.30     82132.34 
   10280.940    216146.30     82183.74 
   10282.630    216961.10     82301.09 
   10284.340    217623.90     82390.40 
   10286.060    218243.60     82511.65 
   10287.810    218562.20     82533.84 
   10289.570    219153.80     82714.00 
   10291.350    219768.30     82913.09 
   10293.150    220117.80     83076.14 
   10294.970    220501.20     83253.14 
   10296.810    220875.50     83434.09 
   10298.670    221246.70     83560.98 
   10300.550    222422.90     83921.83 
   10302.450    222735.00     83900.63 
   10304.360    223932.10     84160.37 
   10306.300    224635.10     84217.06 
   10308.250    225975.00     84426.70 
   10310.220    226809.80     84478.30 
   10312.210    228475.60     84885.84 
   10314.220    229205.30     84952.33 
   10316.250    230213.00     85205.77 
   10318.300    230759.60     85317.16 
   10320.370    231711.10     85652.49 
   10322.460    232305.50     85861.78 
   10324.560    232315.90     85927.02 
   10326.690    232692.30     86081.20 
   10328.830    233138.50     86269.34 
   10331.000    233889.70     86523.42 
   10333.180    234654.80     86780.46 
   10335.380    235511.90     87027.44 
   10337.600    236562.90     87335.38 
   10339.840    237139.80     87540.26 
   10342.100    237814.60     87776.09 
   10344.380    238725.40     88126.87 
   10346.670    238638.20     88120.60 
   10348.990    239702.80     88527.27 
   10351.320    240749.40     88922.91 
   10353.670    241502.90     89188.48 
   10356.050    241941.40     89334.01 
   10358.440    242834.80     89608.48 
   10360.850    243533.10     89810.91 
   10363.280    243906.40     89913.29 
   10365.730    245950.50     90625.61 
   10368.190    246666.70     90872.88 
   10370.680    247050.70     91008.11 
   10373.190    247890.70     91294.28 
   10375.710    249060.70     91648.40 
   10378.250    250156.50     91961.48 
   10380.820    251620.30     92354.49 
   10383.400    253113.00     92713.46 
   10386.000    254187.70     92904.38 
   10388.620    255674.30     93241.25 
   10391.260    256871.80     93519.06 
   10393.920    258869.30     94130.84 
   10396.590    260801.70     94706.55 
   10399.290    262176.00     95087.21 
   10402.010    262789.30     95172.83 
   10404.740    264322.50     95588.39 
   10407.490    265946.60     96016.91 
   10410.260    266789.70     96168.37 
   10413.060    269420.70     96961.78 
   10415.870    270320.60     97144.14 
   10418.700    271450.50     97412.45 
   10421.540    273230.30     97874.71 
   10424.410    274839.00     98306.92 
   10427.300    275937.70     98528.08 
   10430.200    277138.30     98791.19 
   10433.130    278557.80     99129.24 
   10436.070    280007.30     99480.25 
   10439.030    281444.70     99849.20 
   10442.010    280937.10     99425.11 
   10445.020    287292.30    101570.00 
   10448.040    287971.50    101636.80 
   10451.070    288747.70    101830.50 
   10454.130    289854.80    102120.20 
   10457.210    291320.80    102499.90 
   10460.300    292556.70    102922.50 
   10463.420    294038.60    103406.00 
   10466.550    295099.40    103772.50 
   10469.710    296630.10    104318.00 
   10472.880    297340.80    104587.40 
   10476.070    298358.40    104913.70 
   10479.280    300176.90    105493.00 
   10482.510    301796.40    105950.30 
   10485.750    302987.80    106232.50 
   10489.020    305005.20    106805.60 
   10492.310    306262.40    107070.70 
   10495.610    308394.70    107607.70 
   10498.940    311102.80    108312.70 
   10502.280    313850.90    109087.70 
   10505.640    314986.90    109308.60 
   10509.020    316642.80    109711.40 
   10512.420    318436.70    110216.20 
   10515.840    320147.50    110664.90 
   10519.280    321628.30    111090.60 
   10522.740    323808.90    111668.30 
   10526.220    326060.60    112296.80 
   10529.710    327818.10    112701.40 
   10533.230    329238.60    113015.90 
   10536.760    331343.00    113516.30 
   10540.310    333535.30    114064.70 
   10543.880    334908.60    114332.00 
   10547.470    337129.80    114838.30 
   10551.080    339671.00    115487.50 
   10554.710    342664.10    116261.70 
   10558.360    343230.10    116190.80 
   10562.030    347800.00    117532.90 
   10565.710    349581.90    117937.90 
   10569.420    349515.80    117702.90 
   10573.140    354327.50    119148.80 
   10576.880    355150.20    119254.70 
   10580.650    357485.80    119837.50 
   10584.430    359773.30    120410.30 
   10588.230    361948.80    120969.00 
   10592.050    364318.30    121579.70 
   10595.880    366811.60    122238.30 
   10599.740    369741.90    123040.90 
   10603.620    371633.10    123497.40 
   10607.510    373243.30    123840.90 
   10611.430    374248.40    124010.30 
   10615.360    376986.40    124723.70 
   10619.310    379228.30    125251.00 
   10623.280    382238.20    126069.30 
   10627.270    385996.10    127060.50 
   10631.280    388754.80    127748.70 
   10635.310    392376.50    128699.80 
   10639.360    393683.10    128917.90 
   10643.420    396833.70    129754.90 
   10647.510    398631.20    130180.80 
   10651.610    400136.60    130493.80 
   10655.740    403686.00    131445.60 
   10659.880    406995.30    132325.40 
   10664.040    409982.50    133039.20 
   10668.220    413570.70    133972.90 
   10672.420    417297.80    134933.60 
   10676.640    419480.80    135399.20 
   10680.880    422450.70    136087.70 
   10685.140    423786.60    136294.20 
   10689.410    425804.50    136667.70 
   10693.710    429292.20    137491.10 
   10698.020    434948.90    139004.50 
   10702.350    437238.50    139460.80 
   10706.710    439536.10    139947.00 
   10711.080    441177.60    140208.20 
   10715.470    443773.00    140776.40 
   10719.880    447519.40    141679.50 
   10724.300    450509.70    142346.50 
   10728.750    452702.90    142802.50 
   10733.220    456905.10    143838.50 
   10737.700    462166.20    145222.40 
   10742.210    464055.20    145531.20 
   10746.730    466731.20    146100.00 
   10751.270    469899.10    146808.80 
   10755.830    473324.90    147610.50 
   10760.410    475819.70    148130.10 
   10765.010    477434.40    148336.70 
   10769.630    481121.00    149214.30 
   10774.270    486434.60    150550.80 
   10778.930    491801.10    151935.20 
   10783.600    494100.60    152336.60 
   10788.290    496159.90    152712.90 
   10793.010    498542.20    153169.20 
   10797.740    499822.50    153282.50 
   10802.490    503088.60    153979.60 
   10807.260    508023.80    155201.80 
   10812.050    507178.80    154614.90 
   10816.860    518423.80    157757.90 
   10821.690    521094.70    158259.90 
   10826.540    524634.50    159010.80 
   10831.400    529303.30    160138.70 
   10836.290    533011.00    160976.50 
   10841.190    533410.60    160798.30 
   10846.110    534530.20    160811.10 
   10851.060    537889.70    161462.80 
   10856.020    545876.10    163513.40 
   10861.000    550595.50    164570.00 
   10866.000    554438.80    165379.50 
   10871.010    555935.10    165544.00 
   10876.050    559633.30    166256.40 
   10881.110    563371.40    167083.80 
   10886.180    562885.40    166540.10 
   10891.280    574446.40    169639.40 
   10896.390    578460.30    170486.60 
   10901.520    583107.10    171433.80 
   10906.670    588429.90    172645.90 
   10911.850    594314.60    174008.00 
   10917.040    595596.30    174046.00 
   10922.240    598040.90    174405.00 
   10927.470    603076.40    175502.90 
   10932.720    608383.80    176664.80 
   10937.980    613778.20    177870.60 
   10943.270    619072.50    178998.40 
   10948.570    624224.80    180060.10 
   10953.890    624736.90    179859.80 
   10959.240    628807.10    180645.40 
   10964.600    635019.10    182079.90 
   10969.980    639478.10    182946.50 
   10975.380    642614.00    183459.90 
   10980.790    644957.90    183783.30 
   10986.230    649766.70    184758.70 
   10991.690    659165.40    186990.00 
   10997.160    659493.10    186752.30 
   11002.650    672862.60    190028.50 
   11008.170    674260.10    190028.70 
   11013.700    676094.60    190154.80 
   11019.250    679834.00    190799.80 
   11024.820    684205.30    191630.80 
   11030.410    689633.60    192695.80 
   11036.020    695758.80    194004.70 
   11041.640    702423.90    195416.60 
   11047.290    708554.90    196720.40 
   11052.960    708547.90    196304.10 
   11058.640    711195.80    196571.80 
   11064.340    714713.70    197141.50 
   11070.070    722558.50    198844.10 
   11075.810    729823.20    200408.60 
   11081.570    733239.90    200931.10 
   11087.350    735409.40    201053.60 
   11093.150    742836.00    202624.00 
   11098.960    750564.40    204303.30 
   11104.800    753958.80    204785.60 
   11110.660    758189.20    205431.90 
   11116.530    760682.40    205682.10 
   11122.420    770696.60    207961.30 
   11128.340    775916.80    208870.30 
   11134.270    787433.80    211445.40 
   11140.220    795575.80    213124.40 
   11146.190    795570.80    212678.30 
   11152.180    796236.60    212366.20 
   11158.190    807383.40    214829.10 
   11164.210    814972.10    216332.90 
   11170.260    821941.80    217681.60 
   11176.320    822099.40    217252.30 
   11182.410    827021.90    218047.90 
   11188.510    838436.40    220559.50 
   11194.630    847100.80    222301.10 
   11200.770    848090.10    222032.50 
   11206.930    849792.40    221989.00 
   11213.110    863700.60    225098.40 
   11219.310    870177.70    226291.70 
   11225.530    870350.80    225818.00 
   11231.770    874700.80    226422.20 
   11238.020    887353.70    229129.40 
   11244.290    894081.60    230354.50 
   11250.590    893703.40    229739.60 
   11256.900    898683.10    230477.70 
   11263.230    906015.80    231868.60 
   11269.580    920795.40    235056.60 
   11275.950    928159.90    236397.50 
   11282.340    929142.40    236110.30 
   11288.750    928242.80    235355.10 
   11295.170    941666.10    238214.80 
   11301.620    951053.40    240003.50 
   11308.080    960064.60    241670.10 
