# XDI/1.0 GSE/1.0
# Column.1: energy eV
# Column.2: mutrans
# Column.3: i0
# Element.edge: K
# Element.symbol: Fe
# Scan.edge_energy: 7112.
# Mono.name: Si 111
# Mono.d_spacing: 3.13550
# Beamline.name: 13-BM-D
# Beamline.collimation: none
# Beamline.focusing: no
# Beamline.harmonic_rejection: detuned 50%
# Facility.name: APS
# Facility.energy: 7.00 GeV
# Facility.xray_source: APS bending magnet
# Scan.start_time: 2002-03-16T14:48:54
# Detector.I0: 15cm  N2
# Detector.I1: 15cm  N2
# Sample.name: Fe2O3
# Sample.prep: powder on tape, 5 layers
# ///
# room temperature
# measured at beamline 13-BM-D
# vert slits = 2mm (at 45m)
#----
#   energy       mutrans            i0
  6962.0000       0.45269463        304063.00
  6972.0000       0.44131901        306084.00
  6982.0000       0.42886603        305972.00
  6992.0000       0.41720181        305954.00
  7002.0000       0.40586037        305931.00
  7012.0000       0.39476727        305999.00
  7022.0000       0.38227361        306003.00
  7032.0000       0.37157474        305809.00
  7042.0000       0.35982906        305752.00
  7052.0000       0.34804244        305475.00
  7062.0000       0.33716946        305660.00
  7072.0000       0.32710733        305579.00
  7082.0000       0.31647106        305811.00
  7092.0000       0.30560275        305451.00
  7092.5000       0.30563443        305329.00
  7093.0000       0.30510714        305069.00
  7093.5000       0.30390423        305163.00
  7094.0000       0.30340004        305062.00
  7094.5000       0.30247679        305020.00
  7095.0000       0.30161030        305010.00
  7095.5000       0.30143560        304904.00
  7096.0000       0.30182272        305018.00
  7096.5000       0.30064646        305066.00
  7097.0000       0.30053491        304982.00
  7097.5000       0.29990380        304961.00
  7098.0000       0.29939641        305095.00
  7098.5000       0.29901060        305127.00
  7099.0000       0.29848694        304664.00
  7099.5000       0.29801643        304778.00
  7100.0000       0.29717474        305025.00
  7100.5000       0.29726503        304611.00
  7101.0000       0.29699380        304702.00
  7101.5000       0.29541302        304734.00
  7102.0000       0.29587266        304780.00
  7102.5000       0.29494244        304780.00
  7103.0000       0.29410402        304695.00
  7103.5000       0.29388824        304695.00
  7104.0000       0.29297838        304627.00
  7104.5000       0.29280461        304495.00
  7105.0000       0.29230386        304510.00
  7105.5000       0.29137607        304514.00
  7106.0000       0.29135077        304517.00
  7106.5000       0.29126192        304692.00
  7107.0000       0.29143121        304587.00
  7107.5000       0.29060936        304413.00
  7108.0000       0.29005647        304635.00
  7108.5000       0.29031930        304433.00
  7109.0000       0.28990236        304413.00
  7109.5000       0.28874915        304233.00
  7110.0000       0.28909261        304212.00
  7110.5000       0.28866770        304323.00
  7111.0000       0.28917390        304194.00
  7111.5000       0.29043826        304147.00
  7112.0000       0.29267410        304269.00
  7112.5000       0.29494513        304253.00
  7113.0000       0.29600877        304160.00
  7113.5000       0.29801196        304293.00
  7114.0000       0.29888864        303972.00
  7114.5000       0.29723269        304305.00
  7115.0000       0.29598718        304222.00
  7115.5000       0.29570735        304110.00
  7116.0000       0.29612630        303631.00
  7116.5000       0.29605121        303264.00
  7117.0000       0.29552075        303892.00
  7117.5000       0.29614099        304847.00
  7118.0000       0.29644844        304283.00
  7118.5000       0.29779042        303835.00
  7119.0000       0.29993892        303819.00
  7119.5000       0.30345016        303972.00
  7120.0000       0.30831091        303798.00
  7120.5000       0.31532528        303964.00
  7121.0000       0.32619121        303865.00
  7121.5000       0.34159322        303773.00
  7122.0000       0.36005059        303565.00
  7122.5000       0.38021751        304826.00
  7123.0000       0.39985553        305066.00
  7123.5000       0.41556247        305418.00
  7124.0000       0.43107601        305544.00
  7124.5000       0.44763546        305578.00
  7125.0000       0.46584801        305514.00
  7125.5000       0.48750651        305555.00
  7126.0000       0.51010239        305463.00
  7126.5000       0.53196397        305373.00
  7127.0000       0.55274544        305367.00
  7127.5000       0.57194624        305396.00
  7128.0000       0.58976722        305307.00
  7128.5000       0.60541635        305306.00
  7129.0000       0.61574924        305284.00
  7129.5000       0.62023096        305231.00
  7130.0000       0.62151904        305226.00
  7130.5000       0.62315311        305162.00
  7131.0000       0.62587109        305282.00
  7131.5000       0.63218402        305375.00
  7132.0000       0.63930873        305470.00
  7132.8830       0.64390239        304944.00
  7133.7850       0.63853621        305147.00
  7134.7070       0.62298086        305143.00
  7135.6470       0.60702953        304964.00
  7136.6060       0.59635342        305115.00
  7137.5840       0.58641850        305106.00
  7138.5820       0.57288592        305011.00
  7139.5990       0.55901208        305020.00
  7140.6340       0.54521668        305100.00
  7141.6890       0.53379383        305141.00
  7142.7630       0.52583586        304915.00
  7143.8560       0.52129420        304975.00
  7144.9680       0.51941879        304686.00
  7146.0990       0.51883580        304915.00
  7147.2490       0.51735024        304662.00
  7148.4180       0.51123480        304742.00
  7149.6060       0.50250825        304795.00
  7150.8140       0.49407852        304731.00
  7152.0410       0.48570918        304704.00
  7153.2860       0.47869489        304724.00
  7154.5510       0.47128205        304758.00
  7155.8340       0.46451569        304676.00
  7157.1370       0.45767840        304547.00
  7158.4590       0.45252203        304630.00
  7159.8000       0.44952313        304569.00
  7161.1600       0.44749671        304622.00
  7162.5390       0.44782143        304602.00
  7163.9370       0.44844427        304488.00
  7165.3540       0.44997341        304438.00
  7166.7910       0.45137462        304433.00
  7168.2460       0.45475606        304785.00
  7169.7200       0.46009620        304443.00
  7171.2140       0.46545659        303077.00
  7172.7260       0.47377462        305737.00
  7174.2580       0.48230090        304563.00
  7175.8090       0.48794884        304229.00
  7177.3780       0.49021794        304285.00
  7178.9670       0.49111528        304282.00
  7180.5750       0.49008276        304190.00
  7182.2030       0.48872311        304419.00
  7183.8490       0.48576139        304086.00
  7185.5140       0.48257529        304248.00
  7187.1980       0.47917962        304024.00
  7188.9010       0.47626420        304976.00
  7190.6240       0.47384368        305363.00
  7192.3650       0.46957293        306040.00
  7194.1260       0.46517645        305949.00
  7195.9060       0.46037836        306009.00
  7197.7050       0.45691937        306072.00
  7199.5220       0.45214975        306005.00
  7201.3590       0.44755357        305966.00
  7203.2150       0.44277434        306058.00
  7205.0900       0.43810086        305815.00
  7206.9840       0.43472263        305837.00
  7208.8970       0.43219957        305812.00
  7210.8300       0.42950835        305912.00
  7212.7810       0.42728156        305785.00
  7214.7510       0.42517923        305767.00
  7216.7410       0.42410558        305824.00
  7218.7500       0.42298399        305701.00
  7220.7770       0.42083195        305842.00
  7222.8240       0.42079947        305532.00
  7224.8900       0.41833108        305619.00
  7226.9750       0.41595815        305695.00
  7229.0790       0.41255620        305604.00
  7231.2020       0.40972567        305516.00
  7233.3440       0.40685308        305622.00
  7235.5050       0.40537641        305525.00
  7237.6850       0.40349718        305402.00
  7239.8850       0.40169925        305490.00
  7242.1030       0.39846353        305516.00
  7244.3410       0.39512140        305567.00
  7246.5970       0.39067746        305393.00
  7248.8730       0.38740292        305361.00
  7251.1670       0.38439657        305330.00
  7253.4810       0.38140145        305171.00
  7255.8140       0.37941669        305434.00
  7258.1660       0.37894572        305204.00
  7260.5370       0.37825149        305271.00
  7262.9270       0.37736999        305266.00
  7265.3360       0.37522130        304848.00
  7267.7650       0.37436103        305531.00
  7270.2120       0.37342611        305414.00
  7272.6790       0.37061980        305210.00
  7275.1640       0.36813450        305094.00
  7277.6680       0.36683195        305036.00
  7280.1920       0.36444785        305077.00
  7282.7350       0.36229890        305218.00
  7285.2970       0.35947017        304873.00
  7287.8770       0.35610694        304993.00
  7290.4780       0.35283817        304991.00
  7293.0970       0.34957088        304816.00
  7295.7350       0.34582133        304834.00
  7298.3920       0.34199714        304853.00
  7301.0680       0.33717951        304716.00
  7303.7640       0.33198646        303960.00
  7306.4780       0.32771238        305485.00
  7309.2110       0.32368267        304743.00
  7311.9640       0.31868090        304657.00
  7314.7360       0.31411080        304615.00
  7317.5260       0.30936057        304643.00
  7320.3360       0.30536931        304598.00
  7323.1650       0.30267291        304621.00
  7326.0130       0.30057885        304886.00
  7328.8800       0.29931886        304869.00
  7331.7660       0.29789812        306256.00
  7334.6710       0.29725554        306276.00
  7337.5960       0.29590980        306461.00
  7340.5390       0.29497766        306432.00
  7343.5010       0.29337944        306357.00
  7346.4830       0.28981801        306266.00
  7349.4830       0.28663390        306278.00
  7352.5030       0.28264707        306252.00
  7355.5420       0.27875367        306209.00
  7358.6000       0.27482251        306162.00
  7361.6760       0.27046043        306292.00
  7364.7720       0.26562093        306111.00
  7367.8870       0.26198953        306080.00
  7371.0210       0.25774384        306151.00
  7374.1750       0.25419746        306091.00
  7377.3470       0.25046927        306085.00
  7380.5380       0.24674956        306103.00
  7383.7490       0.24383103        306191.00
  7386.9780       0.23995482        306270.00
  7390.2270       0.23651372        305978.00
  7393.4940       0.23288332        305778.00
  7396.7810       0.22978054        306084.00
  7400.0870       0.22822399        305917.00
  7403.4120       0.22632244        305781.00
  7406.7550       0.22428509        305902.00
  7410.1190       0.22185934        305634.00
  7413.5000       0.21806313        305104.00
  7416.9020       0.21518152        306612.00
  7420.3220       0.21158527        305604.00
  7423.7610       0.20757277        305398.00
  7427.2200       0.20301802        305936.00
  7430.6970       0.19899362        305659.00
  7434.1940       0.19425839        305761.00
  7437.7090       0.18925283        305491.00
  7441.2440       0.18518901        305559.00
  7444.7980       0.18078414        305395.00
  7448.3710       0.17626739        305487.00
  7451.9620       0.17226217        305404.00
  7455.5740       0.16903834        305469.00
  7459.2040       0.16623586        305436.00
  7462.8530       0.16282366        305430.00
  7466.5210       0.15982315        305382.00
  7470.2080       0.15666113        305322.00
  7473.9150       0.15345011        305312.00
  7477.6400       0.15027537        305525.00
  7481.3850       0.14714298        305158.00
  7485.1480       0.14364079        305241.00
  7488.9310       0.13944441        304994.00
  7492.7330       0.13578474        305338.00
  7496.5540       0.13205167        305063.00
  7500.3940       0.12802932        305075.00
  7504.2530       0.12400241        304218.00
  7508.1310       0.12004865        305859.00
  7512.0280       0.11667999        305190.00
  7515.9440       0.11247597        305022.00
  7519.8790       0.10854163        305095.00
  7523.8340       0.10445363        304936.00
  7527.8070       0.10049395        305039.00
  7531.8000       0.97267166E-01    304981.00
  7535.8120       0.93253294E-01    305070.00
  7539.8420       0.89842306E-01    304867.00
  7543.8920       0.86165412E-01    304934.00
  7547.9610       0.82227582E-01    304843.00
  7552.0490       0.78496244E-01    304772.00
  7556.1560       0.74275941E-01    304753.00
  7560.2820       0.70103673E-01    305033.00
  7564.4270       0.66290630E-01    304837.00
  7568.5910       0.62394531E-01    304600.00
  7572.7740       0.58487456E-01    304570.00
  7576.9770       0.54895433E-01    304490.00
  7581.1980       0.51002413E-01    304656.00
  7585.4390       0.46430830E-01    304756.00
  7589.6980       0.43532150E-01    304346.00
  7593.9770       0.38661269E-01    304603.00
  7598.2750       0.35138519E-01    304492.00
  7602.5920       0.30789703E-01    304467.00
  7606.9280       0.26745091E-01    304525.00
  7611.2830       0.23090058E-01    304510.00
  7615.6570       0.19555098E-01    304444.00
  7620.0500       0.15289783E-01    304518.00
  7624.4620       0.11284339E-01    304396.00
  7628.8940       0.78761067E-02    304595.00
  7633.3440       0.33661919E-02    304297.00
  7637.8130      -0.51411652E-03    304133.00
  7642.3020      -0.54362818E-02    304233.00
  7646.8100      -0.96167292E-02    304291.00
  7651.3360      -0.13580556E-01    304128.00
  7655.8820      -0.18106878E-01    304097.00
  7660.4470      -0.22730659E-01    302397.00
  7665.0300      -0.26801504E-01    305641.00
  7669.6340      -0.30568039E-01    304104.00
  7674.2550      -0.34157588E-01    304032.00
  7678.8960      -0.37865995E-01    303959.00
  7683.5570      -0.41265176E-01    304151.00
  7688.2360      -0.45115695E-01    304003.00
  7692.9350      -0.49733750E-01    303864.00
  7697.6520      -0.53440336E-01    303920.00
  7702.3890      -0.57185801E-01    303868.00
  7707.1440      -0.61623434E-01    303821.00
  7711.9190      -0.65802482E-01    303862.00
  7716.7120      -0.69918711E-01    303771.00
  7721.5250      -0.74079104E-01    303847.00
  7726.3570      -0.78809488E-01    303658.00
  7731.2080      -0.82121162E-01    303601.00
  7736.0780      -0.86752740E-01    300202.00
  7740.9670      -0.90871781E-01    307241.00
  7745.8750      -0.94584196E-01    303648.00
  7750.8030      -0.99028875E-01    303525.00
  7755.7500      -0.10373537        303690.00
  7760.7150      -0.10765873        303652.00
  7765.6990      -0.11232989        303624.00
  7770.7030      -0.11656095        303564.00
  7775.7260      -0.12076562        303095.00
  7780.7670      -0.12481850        303863.00
  7785.8280      -0.12885202        303533.00
  7790.9080      -0.13257170        303394.00
  7796.0070      -0.13773963        303490.00
  7801.1250      -0.14136437        303399.00
  7806.2620      -0.14598423        303353.00
  7811.4180      -0.15012959        304068.00
  7816.5940      -0.15403720        304150.00
  7821.7880      -0.15810439        305271.00
  7827.0010      -0.16293522        304624.00
  7832.2340      -0.16727378        305778.00
  7837.4850      -0.17159581        305262.00
  7842.7560      -0.17517506        305223.00
  7848.0460      -0.17945252        305127.00
  7853.3540      -0.18381244        305185.00
  7858.6830      -0.18811437        305126.00
  7864.0300      -0.19235888        305086.00
  7869.3960      -0.19667941        305053.00
  7874.7810      -0.20044412        305131.00
  7880.1850      -0.20445532        305027.00
  7885.6080      -0.20877878        304982.00
  7891.0510      -0.21328193        305007.00
  7896.5120      -0.21710540        304866.00
  7901.9920      -0.22130818        304893.00
  7907.4920      -0.22574317        304925.00
  7913.0110      -0.23009664        305206.00
  7918.5480      -0.23497156        304593.00
  7924.1050      -0.23919114        304785.00
  7929.6810      -0.24381039        304758.00
  7935.2760      -0.24784135        304716.00
  7940.8900      -0.25200914        304386.00
  7946.5230      -0.25568893        305063.00
  7952.1750      -0.26047645        304668.00
  7957.8470      -0.26426869        304668.00
  7963.5370      -0.26862514        304556.00
  7969.2470      -0.27300714        304796.00
