# XDI/1.0 GSE/1.0
# Column.1: energy eV
# Column.2: i0
# Column.3: itrans
# Beamline.name: GSECARS 13BM-D
# Beamline.notes: vert slits = 2mm (at 45m)
# Beamline.collimation: none
# Beamline.focusing: no
# Beamline.harmonic_rejection: detuned 50%
# Facility.name: APS
# Facility.energy: 7.00 GeV
# Facility.xray_source: APS bending magnet
# Detector.I0: N2 15cm
# Detector.I1: N2 15cm
# Element.edge: K
# Element.symbol: Fe
# Mono.d_spacing: 3.13550
# Mono.name: Si(111)
# Mono.notes: unfocussed, detuned 50%
# Sample.formula: Fe3C
# Sample.name: Fe3C
# Sample.prep: powder on tape, 6 layers
# Sample.reference: none
# Sample.temperature: Room Temperature
# Scan.edge_energy: 7112.
# Scan.start_time: 2002-03-16 18:27:34
# ///
#    Note: mono d_spacing is nominal!
#     Energy drive values recorded (encoder used, not recorded)
#     348 E XMU I0
#-------------
#   energy   i0   itrans
    6962.0000  303823.800000  325700.499893
    6972.0000  305990.800000  332501.499926
    6982.0000  305927.800000  337065.499972
    6992.0000  306046.800000  341643.498533
    7002.0000  305831.800000  345887.499981
    7012.0000  305863.800000  350304.499501
    7022.0000  305783.800000  354810.500765
    7032.0000  305480.800000  358919.499815
    7042.0000  306033.800000  364086.498762
    7052.0000  305728.800000  368543.501354
    7062.0000  305626.800000  372693.501397
    7072.0000  305650.800000  377221.498404
    7082.0000  305689.800000  381021.499358
    7092.0000  305570.800000  383951.500177
    7092.5000  305282.800000  383744.501372
    7093.0000  305204.800000  383765.499122
    7093.5000  305134.800000  383911.499580
    7094.0000  305146.800000  383930.498336
    7094.5000  305155.800000  383955.498234
    7095.0000  305161.800000  384098.499093
    7095.5000  305090.800000  383978.498381
    7096.0000  305094.800000  384173.501737
    7096.5000  305006.800000  384179.500060
    7097.0000  305033.800000  384185.500491
    7097.5000  305039.800000  384318.501541
    7098.0000  304899.800000  384131.498524
    7098.5000  304953.800000  384096.498703
    7099.0000  304930.800000  383964.498165
    7099.5000  304858.800000  383942.498772
    7100.0000  304832.800000  383703.500250
    7100.5000  304834.800000  383638.499074
    7101.0000  304789.800000  383435.499911
    7101.5000  304770.800000  383418.498763
    7102.0000  304789.800000  383416.501153
    7102.5000  304758.800000  383049.500162
    7103.0000  304702.800000  382681.501833
    7103.5000  304649.800000  382208.499610
    7104.0000  304648.800000  381700.499260
    7104.5000  304620.800000  381375.500124
    7105.0000  304601.800000  380695.498799
    7105.5000  304573.800000  379990.499965
    7106.0000  304511.800000  379290.498562
    7106.5000  304455.800000  378214.498346
    7107.0000  304565.800000  377075.501173
    7107.5000  304570.800000  375195.499618
    7108.0000  304442.800000  372946.501063
    7108.5000  304432.800000  369947.499800
    7109.0000  304408.800000  365593.501635
    7109.5000  304363.800000  358260.500367
    7110.0000  304373.800000  344960.501242
    7110.5000  304365.800000  323224.500090
    7111.0000  304308.800000  292683.499976
    7111.5000  305032.800000  265183.500697
    7112.0000  305843.800000  248451.499664
    7112.5000  306296.800000  237688.500862
    7113.0000  306305.800000  230832.500015
    7113.5000  306321.800000  225553.500452
    7114.0000  306286.800000  219462.500617
    7114.5000  306258.800000  210976.500691
    7115.0000  306196.800000  202379.500968
    7115.5000  306195.800000  193563.500502
    7116.0000  305839.800000  185755.500483
    7116.5000  305559.800000  179701.500564
    7117.0000  306056.800000  173554.500789
    7117.5000  306632.800000  165743.499649
    7118.0000  306466.800000  156184.499850
    7118.5000  306219.800000  144422.500470
    7119.0000  306081.800000  133186.500649
    7119.5000  305986.800000  122408.500203
    7120.0000  306004.800000  112199.494542
    7120.5000  305908.800000  102889.502212
    7121.0000  305960.800000  93797.498684
    7121.5000  305899.800000  84477.497519
    7122.0000  305904.800000  76169.501701
    7122.5000  305905.800000  68412.496918
    7123.0000  305858.800000  61554.499772
    7123.5000  305862.800000  56121.497310
    7124.0000  305823.800000  51478.498679
    7124.5000  305743.800000  47573.500611
    7125.0000  305746.800000  44461.498323
    7125.5000  305744.800000  41768.500006
    7126.0000  305645.800000  39409.500441
    7126.5000  305679.800000  37358.499484
    7127.0000  305694.800000  35337.499844
    7127.5000  305660.800000  33629.501090
    7128.0000  305600.800000  32151.499010
    7128.5000  305564.800000  30941.501315
    7129.0000  305532.800000  30055.498957
    7129.5000  305536.800000  29521.500536
    7130.0000  305540.800000  29405.499693
    7130.5000  305423.800000  29482.498625
    7131.0000  305458.800000  29801.499428
    7131.5000  305450.800000  30334.501199
    7132.0000  305483.800000  30945.498658
    7132.8830  305532.800000  32484.499523
    7133.7850  305476.800000  34148.499094
    7134.7070  305452.800000  35961.501586
    7135.6470  305389.800000  37173.498200
    7136.6060  305314.800000  37709.500881
    7137.5840  305300.800000  37939.501305
    7138.5820  305319.800000  37871.500059
    7139.5990  305298.800000  37752.498886
    7140.6340  305278.800000  37671.500642
    7141.6890  305194.800000  37700.500162
    7142.7630  305208.800000  37753.501734
    7143.8560  305178.800000  37965.499307
    7144.9680  305150.800000  38105.498170
    7146.0990  305130.800000  38088.501441
    7147.2490  305152.800000  38089.499283
    7148.4180  305073.800000  37958.498363
    7149.6060  305014.800000  37772.499070
    7150.8140  305017.800000  37483.499978
    7152.0410  305003.800000  37085.499181
    7153.2860  305050.800000  36775.498438
    7154.5510  304998.800000  36622.501339
    7155.8340  304981.800000  36662.498841
    7157.1370  304940.800000  36781.498456
    7158.4590  304944.800000  37136.498632
    7159.8000  304875.800000  37775.501368
    7161.1600  304837.800000  38738.499780
    7162.5390  304794.800000  40023.499267
    7163.9370  304756.800000  41363.501325
    7165.3540  304729.800000  42583.501193
    7166.7910  304687.800000  43692.499264
    7168.2460  304650.800000  44731.497819
    7169.7200  304588.800000  45507.501034
    7171.2140  303615.800000  45992.502144
    7172.7260  305871.800000  46540.498076
    7174.2580  304686.800000  46389.501078
    7175.8090  304591.800000  46186.498705
    7177.3780  304456.800000  45743.500002
    7178.9670  304607.800000  45050.498410
    7180.5750  304487.800000  44130.498556
    7182.2030  304505.800000  42913.498835
    7183.8490  304493.800000  41776.501889
    7185.5140  304400.800000  40765.500760
    7187.1980  304452.800000  40001.500541
    7188.9010  304333.800000  39309.500212
    7190.6240  304290.800000  38687.498943
    7192.3650  304392.800000  38253.500507
    7194.1260  304334.800000  37833.498398
    7195.9060  304313.800000  37515.500936
    7197.7050  304279.800000  37379.501758
    7199.5220  304216.800000  37273.499505
    7201.3590  304243.800000  37220.498843
    7203.2150  304256.800000  37378.500331
    7205.0900  304154.800000  37646.499770
    7206.9840  304152.800000  38290.499352
    7208.8970  304106.800000  39076.499696
    7210.8300  304014.800000  40009.498340
    7212.7810  304049.800000  40984.498251
    7214.7510  304075.800000  41986.498925
    7216.7410  303947.800000  42973.501267
    7218.7500  303935.800000  44040.501312
    7220.7770  303866.800000  45195.501045
    7222.8240  303936.800000  46263.498695
    7224.8900  303963.800000  47250.499030
    7226.9750  303899.800000  48133.501994
    7229.0790  303835.800000  48993.499395
    7231.2020  303786.800000  49684.501309
    7233.3440  303762.800000  50293.499476
    7235.5050  303719.800000  50705.498979
    7237.6850  303775.800000  50780.500340
    7239.8850  303780.800000  50563.500838
    7242.1030  303725.800000  49868.498992
    7244.3410  303626.800000  48787.499179
    7246.5970  303597.800000  47565.499552
    7248.8730  303595.800000  46259.498296
    7251.1670  303547.800000  45112.501083
    7253.4810  303675.800000  44165.501928
    7255.8140  303558.800000  43418.500602
    7258.1660  303549.800000  42855.499622
    7260.5370  303444.800000  42564.501845
    7262.9270  303474.800000  42574.499713
    7265.3360  303261.800000  42952.500211
    7267.7650  304225.800000  43791.497996
    7270.2120  304191.800000  44696.501106
    7272.6790  305416.800000  45945.499523
    7275.1640  305517.800000  47150.501347
    7277.6680  305486.800000  48401.498298
    7280.1920  305487.800000  49607.500561
    7282.7350  305454.800000  50575.502234
    7285.2970  305446.800000  51335.500105
    7287.8770  305429.800000  51756.501907
    7290.4780  305363.800000  52146.499353
    7293.0970  305337.800000  52584.500274
    7295.7350  305247.800000  52864.498397
    7298.3920  305302.800000  53158.497569
    7301.0680  305162.800000  53498.499388
    7303.7640  304339.800000  53542.500496
    7306.4780  305947.800000  54101.499311
    7309.2110  305120.800000  54175.499298
    7311.9640  305110.800000  54392.500686
    7314.7360  305094.800000  54594.500159
    7317.5260  305112.800000  54786.501702
    7320.3360  305038.800000  54739.500665
    7323.1650  305048.800000  54711.502124
    7326.0130  305055.800000  54574.498363
    7328.8800  304936.800000  54392.498113
    7331.7660  304989.800000  54079.502558
    7334.6710  304955.800000  53944.500421
    7337.5960  304910.800000  53882.501344
    7340.5390  304859.800000  54020.499711
    7343.5010  304851.800000  54346.502327
    7346.4830  304835.800000  54958.500880
    7349.4830  304739.800000  55674.498070
    7352.5030  304762.800000  56497.498855
    7355.5420  304771.800000  57411.498172
    7358.6000  304790.800000  58365.498703
    7361.6760  304770.800000  59348.498324
    7364.7720  304722.800000  60240.501645
    7367.8870  304635.800000  60945.502593
    7371.0210  304654.800000  61497.500540
    7374.1750  304613.800000  61812.502186
    7377.3470  304610.800000  62168.497238
    7380.5380  304541.800000  62384.500304
    7383.7490  304601.800000  62813.501967
    7386.9780  304590.800000  62977.501053
    7390.2270  304424.800000  63209.499248
    7393.4940  304476.800000  63408.498219
    7396.7810  304420.800000  63618.502942
    7400.0870  304393.800000  63947.501511
    7403.4120  304457.800000  64224.502046
    7406.7550  304390.800000  64497.502501
    7410.1190  304274.800000  64745.502613
    7413.5000  303636.800000  64841.501286
    7416.9020  304935.800000  65264.501234
    7420.3220  304218.800000  65470.501300
    7423.7610  303941.800000  66018.501976
    7427.2200  304415.800000  66655.497746
    7430.6970  304239.800000  67051.501703
    7434.1940  304219.800000  67614.500634
    7437.7090  304106.800000  67980.497019
    7441.2440  304055.800000  68504.500045
    7444.7980  304044.800000  69157.503241
    7448.3710  304014.800000  69945.501193
    7451.9620  304380.800000  70676.501543
    7455.5740  305841.800000  71662.498321
    7459.2040  306017.800000  72253.500106
    7462.8530  306037.800000  72851.500077
    7466.5210  305961.800000  73370.500740
    7470.2080  305856.800000  73929.498682
    7473.9150  305861.800000  74481.499519
    7477.6400  306073.800000  75060.499574
    7481.3850  305814.800000  75639.496707
    7485.1480  305861.800000  76169.503492
    7488.9310  305858.800000  76619.503372
    7492.7330  305786.800000  77187.500021
    7496.5540  305723.800000  77538.499439
    7500.3940  305731.800000  77867.498657
    7504.2530  304977.800000  78164.500531
    7508.1310  306527.800000  78950.498336
    7512.0280  305779.800000  79109.497339
    7515.9440  305726.800000  79579.497669
    7519.8790  305711.800000  80090.498622
    7523.8340  305582.800000  80778.502583
    7527.8070  305554.800000  81353.498689
    7531.8000  305500.800000  82042.499310
    7535.8120  305488.800000  82653.503811
    7539.8420  305489.800000  83181.501899
    7543.8920  305562.800000  83746.503630
    7547.9610  305507.800000  84380.498139
    7552.0490  305337.800000  84852.504218
    7556.1560  305369.800000  85473.501266
    7560.2820  305330.800000  86142.498045
    7564.4270  305392.800000  86855.499879
    7568.5910  305366.800000  87709.496460
    7572.7740  305328.800000  88370.502226
    7576.9770  305241.800000  89119.498543
    7581.1980  305251.800000  89846.495608
    7585.4390  305207.800000  90407.502490
    7589.6980  305004.800000  91080.498482
    7593.9770  305417.800000  91764.496578
    7598.2750  305209.800000  92445.502524
    7602.5920  305180.800000  92990.495394
    7606.9280  305014.800000  93614.501311
    7611.2830  305213.800000  94250.498425
    7615.6570  305073.800000  94858.500664
    7620.0500  304974.800000  95514.498264
    7624.4620  304992.800000  96265.497171
    7628.8940  304916.800000  96925.501002
    7633.3440  304955.800000  97630.500339
    7637.8130  304834.800000  98399.496829
    7642.3020  304865.800000  99133.495359
    7646.8100  304799.800000  99890.498163
    7651.3360  304802.800000  100520.502345
    7655.8820  304711.800000  101144.502469
    7660.4470  302907.800000  101128.498318
    7665.0300  306255.800000  103213.504336
    7669.6340  304687.800000  103298.499029
    7674.2550  304556.800000  104014.499226
    7678.8960  304586.800000  104680.505222
    7683.5570  304634.800000  105520.503724
    7688.2360  304521.800000  106155.497567
    7692.9350  304539.800000  106945.502757
    7697.6520  304473.800000  107929.500492
    7702.3890  304800.800000  108822.503697
    7707.1440  306246.800000  110217.502925
    7711.9190  306414.800000  111206.500692
    7716.7120  306509.800000  112065.500782
    7721.5250  306401.800000  112876.500207
    7726.3570  306337.800000  113613.499704
    7731.2080  306327.800000  114451.499764
    7736.0780  302577.800000  114208.499910
    7740.9670  310219.800000  117657.499641
    7745.8750  306335.800000  117100.499466
    7750.8030  306198.800000  117887.500511
    7755.7500  306224.800000  118873.500032
    7760.7150  306239.800000  119838.500261
    7765.6990  306167.800000  120658.499561
    7770.7030  306227.800000  121460.500291
    7775.7260  305800.800000  122363.499582
    7780.7670  306391.800000  123413.499913
    7785.8280  306112.800000  124251.500514
    7790.9080  306041.800000  125092.500037
    7796.0070  306016.800000  126100.500547
    7801.1250  305923.800000  126855.499738
    7806.2620  305996.800000  127863.499454
    7811.4180  305957.800000  128727.499608
    7816.5940  305921.800000  129722.500027
    7821.7880  305896.800000  130657.500597
    7827.0010  305267.800000  131287.499895
    7832.2340  306320.800000  132911.499417
    7837.4850  305781.800000  133675.500596
    7842.7560  305776.800000  134628.500102
    7848.0460  305754.800000  135744.500164
    7853.3540  305734.800000  136596.500677
    7858.6830  305742.800000  137788.500665
    7864.0300  305675.800000  138747.499825
    7869.3960  305655.800000  139922.500608
    7874.7810  305676.800000  140824.500050
    7880.1850  305543.800000  141827.499921
    7885.6080  305612.800000  142998.500077
    7891.0510  305490.800000  144058.499498
    7896.5120  305475.800000  145090.499334
    7901.9920  305595.800000  146369.499598
    7907.4920  305453.800000  147441.500404
    7913.0110  305449.800000  148476.499668
    7918.5480  305404.800000  149703.499777
    7924.1050  305402.800000  150626.499751
    7929.6810  305439.800000  151770.500570
    7935.2760  305306.800000  152836.500018
    7940.8900  304923.800000  153811.500403
    7946.5230  305788.800000  155221.499767
    7952.1750  305291.800000  156155.500765
    7957.8470  305280.800000  157392.500512
    7963.5370  305144.800000  158410.500473
    7969.2470  305495.800000  159748.499524
