#XDI/1.1  GSE/2.0
# Column.1: energy eV
# Column.2: itrans
# Column.3: i0
# Element.symbol:  Fe
# Element.edge:  K
# Mono.d_spacing:  3.13477
# Mono.name: Si 111
# Sample.formula: Fe
# Sample.name: Fe
# Sample.prep: metal foil
# Sample.temperature: room temperature
# Facility.Name:  APS
# Beamline.Name:  13-ID-E
# Beamline.xray_source:  3.6cm undulator
# Beamline.Storage_Ring_Current: 102.1
# Beamline.I0: He, 200 cm
# Beamline.I1: N2,  10 cm
# Scan.start_time: 2016-07-05 19:01:14
# Scan.end_time: 2016-07-05 19:10:45
# ScanParameters.Start: Scan.Member: Value
# ScanParameters.ScanType: xafs
# ScanParameters.E0: 7112.000
# ScanParameters.Legend:  Start, Stop, Step, K-space, Time
# ScanParameters.Region1:   -100.000,   -10.000,     5.000  False  0.50
# ScanParameters.Region2:    -10.000,    20.000,     0.100  False  0.50
# ScanParameters.Region3:      2.291,    13.000,     0.050  True  0.50
# ScanParameters.End: here
#-------------------------
#  energy  itrans  i0
    7012.000     87297.90    113841.90 
    7017.000     87973.90    114398.90 
    7022.000     87968.90    114164.90 
    7027.000     87900.90    113786.90 
    7032.000     88111.90    113805.90 
    7037.000     88147.90    113596.90 
    7042.000     88027.90    113217.90 
    7047.000     88061.90    113013.90 
    7052.000     87920.90    112600.90 
    7057.000     88055.90    112548.90 
    7062.000     88184.90    112518.90 
    7067.000     88030.90    112155.90 
    7072.000     87033.90    110750.90 
    7077.000     87624.90    111409.90 
    7082.000     87390.90    111071.90 
    7087.000     87528.90    111313.90 
    7092.000     87010.90    110894.90 
    7097.000     86523.90    110838.90 
    7102.000     85465.90    110901.90 
    7102.100     85326.90    110753.90 
    7102.200     85262.90    110724.90 
    7102.300     85175.90    110646.90 
    7102.400     85143.90    110662.90 
    7102.500     85088.90    110639.90 
    7102.600     85031.90    110629.90 
    7102.700     85048.90    110709.90 
    7102.800     84970.90    110651.90 
    7102.900     84938.90    110638.90 
    7103.000     85025.90    110802.90 
    7103.100     85019.90    110852.90 
    7103.200     84975.90    110841.90 
    7103.300     84856.90    110738.90 
    7103.400     84835.90    110773.90 
    7103.500     84787.90    110794.90 
    7103.600     84668.90    110708.90 
    7103.700     84584.90    110649.90 
    7103.800     84540.90    110659.90 
    7103.900     84500.90    110689.90 
    7104.000     84445.90    110669.90 
    7104.100     84330.90    110597.90 
    7104.200     84292.90    110608.90 
    7104.300     84218.90    110599.90 
    7104.400     84301.90    110765.90 
    7104.500     84161.90    110673.90 
    7104.600     84114.90    110724.90 
    7104.700     83983.90    110614.90 
    7104.800     83808.90    110458.90 
    7104.900     83806.90    110562.90 
    7105.000     83599.90    110383.90 
    7105.100     83966.90    110946.90 
    7105.200     83791.90    110851.90 
    7105.300     83623.90    110716.90 
    7105.400     83620.90    110842.90 
    7105.500     83445.90    110717.90 
    7105.600     83364.90    110716.90 
    7105.700     83316.90    110793.90 
    7105.800     83203.90    110785.90 
    7105.900     83163.90    110863.90 
    7106.000     83056.90    110827.90 
    7106.100     82930.90    110816.90 
    7106.200     82854.90    110848.90 
    7106.300     82832.90    110981.90 
    7106.400     82521.90    110716.90 
    7106.500     82378.90    110682.90 
    7106.600     82163.90    110556.90 
    7106.700     82021.90    110569.90 
    7106.800     81923.90    110603.90 
    7106.900     81738.90    110546.90 
    7107.000     81619.90    110579.90 
    7107.100     81471.90    110608.90 
    7107.200     81281.90    110577.90 
    7107.300     81152.90    110620.90 
    7107.400     80946.90    110580.90 
    7107.500     80809.90    110663.90 
    7107.600     80465.90    110481.90 
    7107.700     80181.90    110391.90 
    7107.800     79924.90    110365.90 
    7107.900     79659.90    110341.90 
    7108.000     79416.90    110390.90 
    7108.100     79176.90    110444.90 
    7108.200     78896.90    110466.90 
    7108.300     78633.90    110574.90 
    7108.400     78249.90    110520.90 
    7108.500     77820.90    110457.90 
    7108.600     77332.90    110351.90 
    7108.700     76817.90    110258.90 
    7108.800     76411.90    110377.90 
    7108.900     75810.90    110299.90 
    7109.000     75297.90    110435.90 
    7109.100     74547.90    110338.90 
    7109.200     73827.90    110300.90 
    7109.300     73175.90    110571.90 
    7109.400     72095.90    110332.90 
    7109.500     71094.90    110357.90 
    7109.600     69883.90    110259.90 
    7109.700     68624.90    110234.90 
    7109.800     67106.90    110179.90 
    7109.900     65454.90    110098.90 
    7110.000     63820.90    110289.90 
    7110.100     61912.90    110369.90 
    7110.200     59712.90    110004.90 
    7110.300     57527.90    110043.90 
    7110.400     55347.90    110201.90 
    7110.500     53090.90    110206.90 
    7110.600     50713.90    110147.90 
    7110.700     48410.90    110017.90 
    7110.800     45049.90    107319.90 
    7110.900     44313.90    110450.90 
    7111.000     42391.90    110573.90 
    7111.100     40529.90    110495.90 
    7111.200     38884.90    110349.90 
    7111.300     37375.90    110351.90 
    7111.400     36093.90    110373.90 
    7111.500     34893.90    110420.90 
    7111.600     33793.90    110354.90 
    7111.700     32879.90    110462.90 
    7111.800     32000.90    110470.90 
    7111.900     31204.90    110433.90 
    7112.000     30477.90    110465.90 
    7112.100     29768.90    110357.90 
    7112.200     29140.90    110447.90 
    7112.300     28522.90    110474.90 
    7112.400     27881.90    110223.90 
    7112.500     27290.90    110143.90 
    7112.600     26765.90    110137.90 
    7112.700     26232.90    110067.90 
    7112.800     25763.90    110161.90 
    7112.900     25260.90    110086.90 
    7113.000     24778.90    110007.90 
    7113.100     24368.90    110103.90 
    7113.200     23922.90    110036.90 
    7113.300     23507.90    109946.90 
    7113.400     23141.90    110069.90 
    7113.500     22813.90    110171.90 
    7113.600     22485.90    110258.90 
    7113.700     22112.90    109988.90 
    7113.800     21823.90    109973.90 
    7113.900     21556.90    109996.90 
    7114.000     21302.90    109922.90 
    7114.100     21082.90    109983.90 
    7114.200     20875.90    109979.90 
    7114.300     20696.90    109995.90 
    7114.400     20505.90    109835.90 
    7114.500     20385.90    110005.90 
    7114.600     20252.90    110002.90 
    7114.700     20129.90    109928.90 
    7114.800     20038.90    110019.90 
    7114.900     19966.90    110094.90 
    7115.000     19842.90    109875.90 
    7115.100     19781.90    109950.90 
    7115.200     19708.90    109948.90 
    7115.300     19647.90    109958.90 
    7115.400     19571.90    109949.90 
    7115.500     19477.90    109800.90 
    7115.600     19402.90    109849.90 
    7115.700     19307.90    109839.90 
    7115.800     19211.90    109862.90 
    7115.900     19091.90    109861.90 
    7116.000     18953.90    109836.90 
    7116.100     18795.90    109863.90 
    7116.200     18587.90    109681.90 
    7116.300     18376.90    109676.90 
    7116.400     18190.90    109922.90 
    7116.500     17883.90    109661.90 
    7116.600     17617.90    109750.90 
    7116.700     17294.90    109684.90 
    7116.800     16965.90    109627.90 
    7116.900     16594.90    109541.90 
    7117.000     16237.90    109631.90 
    7117.100     15855.90    109597.90 
    7117.200     15448.90    109550.90 
    7117.300     15054.90    109552.90 
    7117.400     14654.90    109627.90 
    7117.500     14249.90    109574.90 
    7117.600     13838.90    109612.90 
    7117.700     13435.90    109550.90 
    7117.800     13020.90    109456.90 
    7117.900     12637.90    109464.90 
    7118.000     12247.90    109504.90 
    7118.100     11878.90    109545.90 
    7118.200     11505.90    109555.90 
    7118.300     11147.90    109509.90 
    7118.400     10798.90    109593.90 
    7118.500     10472.90    109689.90 
    7118.600     10124.90    109614.90 
    7118.700      9800.90    109572.90 
    7118.800      9466.90    109437.90 
    7118.900      9172.90    109495.90 
    7119.000      8848.90    109369.90 
    7119.100      8560.90    109483.90 
    7119.200      8277.90    109481.90 
    7119.300      7999.90    109515.90 
    7119.400      7732.90    109475.90 
    7119.500      7471.90    109510.90 
    7119.600      7227.90    109548.90 
    7119.700      6973.90    109371.90 
    7119.800      6754.90    109570.90 
    7119.900      6527.90    109528.90 
    7120.000      6315.90    109455.90 
    7120.100      6101.90    109293.90 
    7120.200      5916.90    109331.90 
    7120.300      5729.90    109296.90 
    7120.400      5562.90    109353.90 
    7120.500      5394.90    109332.90 
    7120.600      5239.90    109226.90 
    7120.700      5085.90    109103.90 
    7120.800      4952.90    109204.90 
    7120.900      4818.90    109182.90 
    7121.000      4696.90    109186.90 
    7121.100      4575.90    109136.90 
    7121.200      4465.90    109132.90 
    7121.300      4362.90    109296.90 
    7121.400      4264.90    109288.90 
    7121.500      4166.90    109301.90 
    7121.600      4073.90    109185.90 
    7121.700      3982.90    109125.90 
    7121.800      3905.90    109215.90 
    7121.900      3824.90    109150.90 
    7122.000      3751.90    109160.90 
    7122.100      3679.90    109113.90 
    7122.200      3609.90    109047.90 
    7122.300      3557.90    109447.90 
    7122.400      3493.90    109382.90 
    7122.500      3439.90    109519.90 
    7122.600      3378.90    109376.90 
    7122.700      3323.90    109355.90 
    7122.800      3269.90    109299.90 
    7122.900      3218.90    109227.90 
    7123.000      3168.90    109196.90 
    7123.100      3124.90    109241.90 
    7123.200      3078.90    109210.90 
    7123.300      3034.90    109147.90 
    7123.400      2992.90    109111.90 
    7123.500      2954.90    109186.90 
    7123.600      2918.90    109317.90 
    7123.700      2878.90    109178.90 
    7123.800      2842.90    109222.90 
    7123.900      2806.90    109181.90 
    7124.000      2771.90    109190.90 
    7124.100      2733.90    109024.90 
    7124.200      2701.90    109029.90 
    7124.300      2671.90    109153.90 
    7124.400      2636.90    109030.90 
    7124.500      2610.90    109272.90 
    7124.600      2577.90    109189.90 
    7124.700      2545.90    109161.90 
    7124.800      2513.90    109125.90 
    7124.900      2480.90    109007.90 
    7125.000      2448.90    108896.90 
    7125.100      2421.90    109057.90 
    7125.200      2391.90    109016.90 
    7125.300      2360.90    108993.90 
    7125.400      2333.90    109046.90 
    7125.500      2303.90    108982.90 
    7125.600      2272.90    108920.90 
    7125.700      2243.90    108864.90 
    7125.800      2214.90    108921.90 
    7125.900      2186.90    108975.90 
    7126.000      2158.90    108963.90 
    7126.100      2127.90    108934.90 
    7126.200      2098.90    108945.90 
    7126.300      2067.90    108908.90 
    7126.400      2036.90    108868.90 
    7126.500      2006.90    108865.90 
    7126.600      1976.90    108838.90 
    7126.700      1944.90    108805.90 
    7126.800      1914.90    108787.90 
    7126.900      1884.90    108864.90 
    7127.000      1851.90    108777.90 
    7127.100      1821.90    108893.90 
    7127.200      1791.90    108955.90 
    7127.300      1760.90    109016.90 
    7127.400      1727.90    108925.90 
    7127.500      1693.90    108774.90 
    7127.600      1660.90    108788.90 
    7127.700      1629.90    108786.90 
    7127.800      1595.90    108731.90 
    7127.900      1549.90    107341.90 
    7128.000      1538.90    109179.90 
    7128.100      1508.90    109153.90 
    7128.200      1478.90    109137.90 
    7128.300      1447.90    109005.90 
    7128.400      1420.90    109073.90 
    7128.500      1393.90    109112.90 
    7128.600      1366.90    109081.90 
    7128.700      1341.90    109025.90 
    7128.800      1316.90    108987.90 
    7128.900      1293.90    108975.90 
    7129.000      1271.90    108923.90 
    7129.100      1249.90    108791.90 
    7129.200      1230.90    108764.90 
    7129.300      1213.90    108769.90 
    7129.400      1197.90    108783.90 
    7129.500      1181.90    108705.90 
    7129.600      1168.90    108610.90 
    7129.700      1158.90    108698.90 
    7129.800      1147.90    108793.90 
    7129.900      1140.90    108784.90 
    7130.000      1133.90    108688.90 
    7130.100      1131.90    108867.90 
    7130.200      1124.90    108612.90 
    7130.300      1122.90    108530.90 
    7130.400      1122.90    108475.90 
    7130.500      1125.90    108478.90 
    7130.600      1129.90    108498.90 
    7130.700      1135.90    108409.90 
    7130.800      1144.90    108616.90 
    7130.900      1153.90    108572.90 
    7131.000      1164.90    108582.90 
    7131.100      1177.90    108582.90 
    7131.200      1188.90    108406.90 
    7131.300      1205.90    108514.90 
    7131.400      1222.90    108541.90 
    7131.500      1238.90    108441.90 
    7131.600      1258.90    108481.90 
    7131.700      1277.90    108366.90 
    7131.800      1297.90    108401.90 
    7131.900      1320.90    108457.90 
    7132.000      1341.90    108392.90 
    7132.885      1555.90    108602.90 
    7133.791      1755.90    108444.90 
    7134.717      1905.90    108298.90 
    7135.662      1981.90    108214.90 
    7136.627      1984.90    108479.90 
    7137.610      1913.90    108434.90 
    7138.613      1803.90    108275.90 
    7139.635      1715.90    108457.90 
    7140.677      1669.90    108314.90 
    7141.737      1677.90    108151.90 
    7142.817      1717.90    108441.90 
    7143.917      1734.90    108287.90 
    7145.035      1700.90    108261.90 
    7146.173      1604.90    108302.90 
    7147.330      1482.90    108122.90 
    7148.506      1377.90    108119.90 
    7149.702      1324.90    108763.90 
    7150.916      1286.90    108651.90 
    7152.150      1258.90    108565.90 
    7153.404      1251.90    108432.90 
    7154.676      1272.90    108568.90 
    7155.968      1297.90    108426.90 
    7157.279      1313.90    108297.90 
    7158.610      1319.90    108281.90 
    7159.959      1321.90    108194.90 
    7161.328      1336.90    108007.90 
    7162.716      1363.90    107982.90 
    7164.124      1393.90    107910.90 
    7165.550      1420.90    107950.90 
    7166.996      1438.90    107993.90 
    7168.461      1458.90    107834.90 
    7169.946      1492.90    107820.90 
    7171.449      1550.90    107695.90 
    7172.972      1633.90    107608.90 
    7174.515      1737.90    107506.90 
    7176.076      1855.90    107475.90 
    7177.657      1957.90    107534.90 
    7179.257      2012.90    107348.90 
    7180.876      2011.90    107189.90 
    7182.515      1981.90    107148.90 
    7184.173      1921.90    107165.90 
    7185.850      1826.90    107269.90 
    7187.546      1717.90    107261.90 
    7189.261      1605.90    107168.90 
    7190.996      1492.90    106905.90 
    7192.750      1417.90    107145.90 
    7194.524      1403.90    106840.90 
    7196.316      1454.90    106739.90 
    7198.128      1551.90    106787.90 
    7199.959      1676.90    106557.90 
    7201.810      1833.90    106630.90 
    7203.680      2001.90    106281.90 
    7205.568      2149.90    106326.90 
    7207.477      2175.90    106067.90 
    7209.404      2039.90    106209.90 
    7211.351      1751.90    106010.90 
    7213.317      1430.90    105989.90 
    7215.302      1168.90    105976.90 
    7217.307      1002.90    106032.90 
    7219.330       921.90    105747.90 
    7221.373       931.90    105724.90 
    7223.436      1009.90    103990.90 
    7225.517      1191.90    105476.90 
    7227.618      1407.90    105340.90 
    7229.738      1667.90    105220.90 
    7231.877      1942.90    104894.90 
    7234.036      2185.90    104689.90 
    7236.214      2345.90    104777.90 
    7238.411      2395.90    104826.90 
    7240.627      2341.90    104659.90 
    7242.863      2213.90    104132.90 
    7245.118      2082.90    104070.90 
    7247.392      1993.90    104153.90 
    7249.685      1969.90    103995.90 
    7251.998      2015.90    103974.90 
    7254.330      2081.90    103842.90 
    7256.681      2103.90    103597.90 
    7259.052      2051.90    103316.90 
    7261.442      1974.90    103108.90 
    7263.851      1891.90    101716.90 
    7266.279      1762.90     97261.90 
    7268.726      1790.90    102988.90 
    7271.193      1674.90    102657.90 
    7273.679      1587.90    102726.90 
    7276.184      1508.90    100434.90 
    7278.709      1501.90    102417.90 
    7281.253      1444.90    102405.90 
    7283.816      1376.90    102163.90 
    7286.398      1300.90    100078.90 
    7289.000      1331.90    102024.90 
    7291.621      1422.90    101922.90 
    7294.261      1585.90    101782.90 
    7296.920      1772.90    101679.90 
    7299.599      1949.90    101641.90 
    7302.297      2099.90    101533.90 
    7305.014      2215.90    101650.90 
    7307.750      2241.90     99950.90 
    7310.506      2279.90    101072.90 
    7313.281      2271.90    101041.90 
    7316.075      2272.90    100935.90 
    7318.889      2279.90    100747.90 
    7321.722      2283.90    100520.90 
    7324.574      2288.90    100528.90 
    7327.445      2293.90    100539.90 
    7330.335      2316.90    100367.90 
    7333.245      2372.90    100151.90 
    7336.174      2424.90    100088.90 
    7339.123      2425.90     99843.90 
    7342.090      2358.90     99694.90 
    7345.077      2229.90     99702.90 
    7348.083      2083.90     99529.90 
    7351.109      1953.90     99338.90 
    7354.153      1849.90     99202.90 
    7357.217      1765.90     99235.90 
    7360.300      1692.90     99026.90 
    7363.403      1650.90     98910.90 
    7366.524      1647.90     98700.90 
    7369.665      1694.90     98499.90 
    7372.825      1808.90     98466.90 
    7376.005      1992.90     98140.90 
    7379.204      2246.90     97974.90 
    7382.422      2490.90     97790.90 
    7385.659      2629.90     97681.90 
    7388.915      2649.90     97649.90 
    7392.191      2534.90     95054.90 
    7395.486      2550.90     97663.90 
    7398.800      2525.90     97437.90 
    7402.134      2527.90     97273.90 
    7405.487      2524.90     97063.90 
    7408.859      2510.90     96794.90 
    7412.250      2503.90     96850.90 
    7415.661      2499.90     96639.90 
    7419.091      2517.90     96494.90 
    7422.540      2567.90     96385.90 
    7426.008      2621.90     96226.90 
    7429.496      2636.90     96120.90 
    7433.003      2615.90     95755.90 
    7436.529      2576.90     95572.90 
    7440.074      2501.90     95345.90 
    7443.639      2406.90     95141.90 
    7447.223      2327.90     94973.90 
    7450.826      2273.90     94280.90 
    7454.449      2271.90     94370.90 
    7458.090      2275.90     94076.90 
    7461.751      2297.90     93818.90 
    7465.432      2347.90     93506.90 
    7469.131      2423.90     93138.90 
    7472.850      2531.90     93667.90 
    7476.588      2603.90     93461.90 
    7480.345      2659.90     93202.90 
    7484.122      2728.90     92935.90 
    7487.918      2810.90     92682.90 
    7491.733      2878.90     92445.90 
    7495.567      2907.90     92278.90 
    7499.421      2895.90     91970.90 
    7503.294      2863.90     91706.90 
    7507.186      2841.90     91432.90 
    7511.097      2844.90     91280.90 
    7515.028      2860.90     91063.90 
    7518.978      2870.90     90718.90 
    7522.947      2874.90     90480.90 
    7526.935      2862.90     90220.90 
    7530.943      2846.90     89947.90 
    7534.970      2839.90     89567.90 
    7539.016      2856.90     89432.90 
    7543.082      2871.90     89166.90 
    7547.166      2884.90     88983.90 
    7551.270      2873.90     88603.90 
    7555.394      2844.90     88368.90 
    7559.536      2800.90     87944.90 
    7563.698      2771.90     87519.90 
    7567.879      2767.90     86994.90 
    7572.079      2789.90     86234.90 
    7576.299      2828.90     85315.90 
    7580.538      2895.90     84950.90 
    7584.796      2953.90     84710.90 
    7589.073      2990.90     84563.90 
    7593.370      2980.90     83628.90 
    7597.686      3036.90     84985.90 
    7602.021      2945.90     82049.90 
    7606.375      3063.90     84573.90 
    7610.749      3095.90     84336.90 
    7615.142      3117.90     83922.90 
    7619.554      3129.90     83976.90 
    7623.986      3117.90     83716.90 
    7628.436      3121.90     83584.90 
    7632.906      3144.90     83400.90 
    7637.396      3177.90     83104.90 
    7641.904      3216.90     82867.90 
    7646.432      3245.90     82552.90 
    7650.979      3261.90     82195.90 
    7655.545      3267.90     81872.90 
    7660.131      3262.90     81449.90 
    7664.736      3247.90     81033.90 
    7669.360      3227.90     80624.90 
    7674.003      3219.90     80539.90 
    7678.666      3212.90     80439.90 
    7683.347      3206.90     80078.90 
    7688.049      3220.90     79795.90 
    7692.769      3243.90     79478.90 
    7697.509      3262.90     79039.90 
    7702.268      3286.90     78801.90 
    7707.046      3303.90     78386.90 
    7711.843      3258.90     76385.90 
    7716.660      3367.90     77984.90 
    7721.496      3399.90     77874.90 
    7726.351      3410.90     77536.90 
    7731.225      3411.90     77112.90 
    7736.119      3410.90     76658.90 
    7741.032      3420.90     76334.90 
    7745.964      3427.90     75923.90 
    7750.916      3412.90     75155.90 
    7755.887      3441.90     75305.90 
