# XDI/1.0
# Column.1: energy eV
# Column.2: i0
# Column.3: itrans
# Beamline.name: APS 20BM
# Beamline.notes: vert slits = unknown
# Detector.I0: N2 15cm
# Detector.I1: N2 15cm
# Element.edge: K
# Element.symbol: Fe
# Mono.d_spacing: 3.13550
# Mono.name: Si(111)
# Mono.notes: unfocussed, detuned 50%
# Sample.formula: Fe
# Sample.name: Fe foil  Room Temperature
# Sample.prep: foil
# Sample.reference: none
# Sample.temperature: Room Temperature
# Scan.start_time: 2001-08-09 14:04:00
# ///
#    Note: mono d_spacing is nominal!
#     data from NXS school, 2001
#     412 E XMU I0
#-------------
#   energy   i0   itrans
    6913.7929  408448.190000  478166.814725
    6918.7500  406192.190000  476864.814031
    6923.7348  405265.190000  477147.817562
    6928.7780  402557.190000  475284.814456
    6933.8695  329201.190000  389573.816585
    6938.7345  417231.190000  495318.817322
    6943.9025  414839.190000  493887.817422
    6948.7924  413317.190000  493388.814069
    6953.9658  412792.190000  494179.817709
    6958.8194  412351.190000  494892.817675
    6963.8750  412135.190000  495950.814054
    6968.9280  411976.190000  497071.816878
    6973.8343  411702.190000  498061.816166
    6978.9436  411561.190000  499249.813603
    6983.7510  411374.190000  500320.817797
    6988.8445  411169.190000  501422.813500
    6993.8629  411035.190000  502583.814610
    6998.8993  410935.190000  503763.813134
    7003.9016  410914.190000  505071.816090
    7008.7762  410886.190000  506207.814808
    7013.8350  410811.190000  507479.815249
    7018.8596  410702.190000  508643.817940
    7023.8709  410554.190000  509742.817912
    7028.8687  410463.190000  510848.814166
    7033.7063  410385.190000  511998.818009
    7038.7922  410327.190000  513222.813835
    7043.8016  410311.190000  514353.813522
    7048.7765  410339.190000  515525.815292
    7053.8957  410141.190000  516463.814096
    7058.6426  410016.190000  517327.815821
    7063.7450  409802.190000  518118.815682
    7068.7175  409599.190000  518810.813846
    7073.6019  409470.190000  519460.817677
    7078.7587  409191.190000  519809.814865
    7083.6257  408807.190000  519794.814808
    7088.4996  408307.190000  519029.814607
    7093.5831  406972.190000  516703.817692
    7098.4180  400836.190000  506946.816722
    7103.4629  404177.190000  505742.815807
    7103.9549  410410.190000  512744.814088
    7104.3829  411665.190000  513580.817895
    7104.7574  412093.190000  513245.815589
    7105.0463  412236.190000  512646.816798
    7105.3887  412313.190000  511619.815043
    7105.8597  412133.190000  509939.817476
    7106.2772  411997.190000  508290.817382
    7106.6412  411948.190000  506542.813887
    7106.9624  411841.190000  504844.814422
    7107.3264  411647.190000  502687.813109
    7107.8298  411517.190000  499117.816574
    7108.2582  411317.190000  495662.815789
    7108.6867  411302.190000  491672.817306
    7109.0616  411144.190000  486928.814150
    7109.3402  411001.190000  481698.813205
    7109.7367  410921.190000  471179.815142
    7110.2618  410742.190000  453787.815358
    7110.6691  410775.190000  430589.815116
    7111.0228  410853.190000  395403.814838
    7111.3444  410740.190000  356136.813102
    7111.7411  410647.190000  308320.814794
    7112.2237  410356.190000  264712.814282
    7112.6527  410177.190000  240433.798868
    7113.0495  410106.190000  224364.797210
    7113.3928  409991.190000  212290.797621
    7113.6932  409924.190000  201227.798090
    7114.1009  409741.190000  188521.797438
    7114.5623  409782.190000  178798.798807
    7114.9593  409786.190000  171944.798418
    7115.2921  409736.190000  167810.798201
    7115.6141  409804.190000  165142.797704
    7116.0757  409701.190000  162701.798640
    7116.5374  409582.190000  160352.797361
    7116.9562  409531.190000  156930.797269
    7117.3535  409481.190000  151672.798354
    7117.6865  409493.190000  145504.799616
    7118.0195  409437.190000  135721.800940
    7118.5029  409400.190000  121166.803466
    7118.9649  409418.190000  109518.797711
    7119.3517  409365.190000  99158.793783
    7119.6634  409273.190000  91089.795095
    7120.0073  409278.190000  82851.793897
    7120.5018  409143.190000  72490.795311
    7120.9210  408989.190000  64874.804330
    7121.3296  408847.190000  58815.802432
    7121.7382  408835.190000  54209.800677
    7122.0286  408840.190000  50894.799438
    7122.3835  408773.190000  47087.800491
    7122.8353  408669.190000  43773.801640
    7123.2763  408648.190000  41254.801860
    7123.6421  408622.190000  39180.802249
    7123.9542  408644.190000  37595.799409
    7124.3093  408616.190000  36026.799955
    7124.8044  408464.190000  34232.799983
    7125.2350  408446.190000  32817.800941
    7125.6440  408381.190000  31573.802042
    7126.0209  408247.190000  30586.800167
    7126.3439  408225.190000  29574.800327
    7126.7316  408140.190000  28182.801565
    7127.2162  408108.190000  26671.802223
    7127.6686  407924.190000  25267.799759
    7128.0242  407711.190000  24002.801582
    7128.3258  407444.190000  22793.799934
    7128.7245  407470.190000  21370.801546
    7129.2202  407624.190000  19768.800191
    7129.6190  407604.190000  18643.800556
    7130.0071  407599.190000  17709.800982
    7130.3844  407620.190000  17067.801477
    7130.6862  407489.190000  16642.800237
    7131.1068  407359.190000  16383.799758
    7131.5273  407269.190000  16559.801585
    7131.9372  407266.190000  17051.800531
    7132.2931  407162.190000  17733.801493
    7132.5952  407194.190000  18510.800952
    7133.0483  407138.190000  19722.800672
    7133.5446  407053.190000  20985.800972
    7133.9331  407065.190000  22090.800273
    7134.3109  407097.190000  22971.801753
    7134.6779  407125.190000  23736.801039
    7135.0125  407031.190000  24475.801031
    7135.4660  406957.190000  25316.799713
    7135.9195  407056.190000  25799.799869
    7136.3514  407013.190000  26096.799774
    7136.6754  406975.190000  26227.800221
    7136.9887  406936.190000  26251.800885
    7137.4640  406870.190000  26125.801548
    7137.9177  406873.190000  25860.801441
    7138.2959  406849.190000  25517.800724
    7138.6741  406865.190000  25155.800398
    7139.0092  406845.190000  24789.801643
    7139.3659  406710.190000  24319.800840
    7139.7983  406714.190000  23782.801725
    7140.2091  406595.190000  23415.801478
    7140.6200  406598.190000  23111.800925
    7140.9444  406639.190000  22918.801071
    7141.2688  406666.190000  22791.801249
    7141.7555  406683.190000  22745.801511
    7142.2099  406666.190000  22792.801831
    7142.5777  406768.190000  22899.802028
    7142.9564  406651.190000  23029.801416
    7143.3027  406627.190000  23151.800910
    7143.7139  406588.190000  23312.802077
    7144.1577  406529.190000  23439.800053
    7144.5799  406432.190000  23477.800164
    7144.9805  406499.190000  23458.801064
    7145.2945  406510.190000  23362.801928
    7145.6193  406490.190000  23176.800406
    7146.1283  406464.190000  22821.800277
    7146.5507  406591.190000  22462.800581
    7146.9407  406541.190000  22034.800672
    7147.2765  406475.190000  21643.801182
    7147.6341  406447.190000  21252.801174
    7147.7966  406463.190000  20989.801384
    7148.9888  408480.220000  19766.318277
    7150.0946  410344.380000  19033.923954
    7151.3418  412247.690000  18661.591068
    7152.5894  414119.090000  18389.289256
    7153.7941  415987.560000  18341.991633
    7155.0752  417735.090000  18602.671057
    7156.2047  419579.620000  18969.302321
    7157.5302  421373.160000  19346.867245
    7158.8127  423265.660000  19532.337390
    7160.0848  425033.120000  19645.692347
    7161.5423  426903.470000  19892.916669
    7162.8263  428621.750000  20270.978414
    7164.2196  430293.910000  20759.865653
    7165.6026  431911.910000  21177.556292
    7166.9426  433503.750000  21492.033825
    7168.4576  435038.410000  21813.279289
    7169.9623  436704.880000  22264.278545
    7171.3367  438349.120000  22906.008831
    7172.8426  439880.160000  23895.465817
    7174.3492  441490.940000  25154.628085
    7175.8237  443024.440000  26589.474389
    7177.3316  444477.690000  27985.999366
    7179.0261  445954.620000  29141.183026
    7180.6010  447408.250000  29560.020476
    7182.0892  448788.560000  29509.488736
    7183.7422  449541.530000  29078.580597
    7185.4288  421845.160000  26398.284508
    7187.1821  451982.410000  26942.583459
    7188.7717  455071.310000  25817.473547
    7190.4169  456694.810000  24573.938136
    7192.1837  458091.910000  23281.969990
    7193.9623  459574.620000  22662.555442
    7195.8188  461030.910000  22997.685735
    7197.5224  462529.750000  24060.350525
    7199.2487  463991.190000  25529.538772
    7201.1301  465329.160000  27462.249774
    7203.0344  466657.660000  29744.460910
    7204.9619  467990.690000  32038.176347
    7206.8243  469363.250000  33430.377376
    7208.6656  470837.340000  33064.063048
    7210.5189  471532.910000  30600.219990
    7212.4726  473313.000000  26536.838594
    7214.5379  474581.560000  22214.918984
    7216.5381  475879.590000  19081.453837
    7218.4952  477297.120000  17276.427326
    7220.5973  478574.120000  16747.831708
    7222.6895  479822.560000  17601.675016
    7224.7055  481327.470000  19663.935039
    7226.8003  482679.780000  22439.611158
    7228.8741  483910.560000  26003.696377
    7231.0491  485131.780000  29832.182647
    7233.1810  486451.410000  33654.070681
    7235.2919  487699.440000  36365.346955
    7237.4709  489279.910000  37878.006446
    7239.6847  491353.780000  38026.047973
    7241.9778  467856.030000  35069.465405
    7244.1832  489047.690000  35010.247708
    7246.4124  490557.720000  33578.391431
    7248.7099  493438.160000  33010.894456
    7251.0759  494889.940000  33342.754568
    7253.4101  496151.120000  34326.956790
    7255.6787  497382.660000  35158.505615
    7258.1389  498557.560000  35033.391486
    7260.4778  499703.810000  34195.612381
    7262.8406  500752.440000  33366.157815
    7265.2723  501795.380000  32759.032548
    7267.7169  502718.690000  31963.225833
    7270.1407  503752.310000  30641.735927
    7272.5663  504821.280000  29213.559433
    7275.0047  501836.560000  28129.686816
    7277.5461  506378.190000  27878.118590
    7280.0218  507371.120000  27213.852532
    7282.5556  508258.380000  26287.878524
    7285.2491  508898.940000  25379.200248
    7287.8205  508386.810000  24974.814444
    7290.3486  462910.000000  23444.704553
    7292.9803  514509.470000  28163.881561
    7295.6365  514763.250000  30944.339363
    7298.2495  467182.310000  30567.069426
    7300.9551  515660.690000  36281.071960
    7303.6854  517095.310000  38277.337449
    7306.4065  518324.250000  39598.871155
    7309.0502  519422.470000  40177.669642
    7311.8095  520498.940000  40224.724808
    7314.6733  521388.690000  40268.028220
    7317.3915  522131.720000  40482.589517
    7320.1915  517684.030000  40301.398696
    7323.0166  524437.560000  40958.459659
    7325.9351  524903.380000  41031.760270
    7328.7762  525621.440000  41292.304786
    7331.6652  521841.780000  41689.088942
    7334.4537  528709.380000  43116.105496
    7337.4276  529044.190000  43661.354014
    7340.4039  529828.250000  43323.841584
    7343.2795  530666.620000  41986.548358
    7346.1805  531336.120000  39935.478543
    7349.3019  518646.940000  36936.646265
    7352.2768  533120.000000  36289.020848
    7355.2196  533833.250000  34942.617788
    7358.3951  534812.750000  33757.434874
    7361.4467  535653.440000  32921.458684
    7364.4087  536716.440000  32633.700444
    7367.6733  537835.620000  33088.148749
    7370.7444  538755.000000  34370.805342
    7373.8414  538261.620000  36700.663154
    7377.1378  539941.440000  40454.730731
    7380.2056  540621.500000  44460.991253
    7383.4499  540578.750000  47682.460453
    7386.7088  544047.190000  49265.118219
    7389.8081  544381.880000  49117.971486
    7393.1541  544790.750000  48328.018033
    7396.4219  545440.880000  47761.258621
    7399.7160  546215.120000  47760.688787
    7403.0015  547124.620000  47979.306385
    7406.3133  547973.310000  48054.105854
    7409.6750  548648.190000  47972.091581
    7412.9813  549616.250000  47981.259492
    7416.4896  550414.560000  48185.605711
    7419.7555  551234.000000  48722.132911
    7423.3174  552040.620000  49754.829314
    7426.6598  552846.500000  50551.710675
    7430.1464  551127.500000  50494.765621
    7433.6833  551243.690000  50273.986684
    7437.1650  541308.060000  48674.376600
    7440.6029  552877.620000  48520.940859
    7444.2327  554751.380000  47268.671950
    7447.6892  555891.310000  46400.562849
    7451.3735  556935.440000  46076.622929
    7454.8487  557742.690000  46185.843205
    7458.5167  558432.120000  46479.231169
    7462.1291  559268.750000  47118.774307
    7465.7690  560018.500000  48267.478886
    7469.3531  560758.500000  49778.334121
    7473.1904  561541.560000  51415.345962
    7476.7225  562273.880000  52642.514943
    7480.5915  563034.310000  53801.834638
    7484.3216  563800.940000  55176.307321
    7488.0197  564559.690000  56650.936439
    7491.9009  565448.620000  57893.703671
    7495.5589  566152.690000  58422.624004
    7499.5081  566699.940000  58303.694235
    7503.3057  567133.310000  58032.905782
    7507.0593  567990.880000  57944.262798
    7511.0571  568648.560000  58197.761879
    7514.7947  569266.440000  58638.400736
    7518.8251  569903.440000  59070.186759
    7522.7515  570261.560000  59274.105003
    7526.5012  570918.880000  59316.163054
    7530.6171  571505.310000  59247.357184
    7534.5442  572018.880000  59421.689204
    7538.5240  572507.620000  59841.149640
    7542.5202  572553.500000  60281.760629
    7546.6664  569861.560000  60334.492441
    7550.5381  548996.690000  58089.354063
    7554.6813  575813.000000  60659.348087
    7558.8292  576570.440000  60220.475426
    7562.7747  577183.000000  60037.728560
    7567.0050  577654.690000  60318.114686
    7571.1792  578213.560000  61143.617451
    7575.1747  578792.500000  62418.252264
    7579.3705  579309.620000  63853.013902
    7583.5833  579943.880000  65170.892828
    7587.8746  580613.250000  66077.901553
    7591.9376  580973.750000  66555.026729
    7596.2756  581298.380000  66815.272714
    7600.5695  581729.190000  67098.643667
    7604.8191  582266.060000  67624.131286
    7608.9749  582685.060000  68398.735291
    7613.2714  583431.190000  69217.451384
    7617.6842  584114.500000  69646.296462
    7622.0527  584762.880000  69755.253142
    7626.4017  585339.380000  69891.323609
    7630.6937  585816.000000  70344.503315
    7635.3014  586484.750000  71208.797135
    7639.6411  585878.620000  72004.213275
    7644.1355  587910.620000  73084.728285
    7648.4981  588273.750000  73750.361786
    7652.9159  588674.940000  74234.095057
    7657.5639  589003.310000  74567.943520
    7662.1928  589266.750000  74708.902921
    7666.8651  589691.380000  74747.974529
    7671.4429  577209.060000  73116.139081
    7676.0515  590449.810000  74757.424837
    7680.6658  591090.750000  74904.806367
    7685.5252  591733.750000  75364.299925
    7690.2396  592364.940000  76093.891910
    7695.0611  592936.190000  76948.586251
    7699.7371  592576.500000  77568.380673
    7704.5708  593255.000000  78339.278899
    7709.2968  593598.560000  79143.278839
    7714.0923  594292.250000  80049.380599
    7719.0210  594605.000000  80898.583897
    7723.8927  594925.940000  81559.892464
    7728.8471  595531.940000  82116.282578
    7733.7316  596188.000000  82585.783537
    7738.7119  596416.250000  83167.373820
    7743.5965  596721.560000  83745.061846
    7748.6028  597139.940000  84290.847732
    7753.5260  597596.440000  84766.725400
    7758.5841  598000.060000  85425.705296
    7763.5076  598635.810000  86228.773093
    7768.5535  598980.620000  87076.935474
    7773.5158  599389.500000  87880.192431
    7778.5881  599775.500000  88568.540264
    7783.6025  599992.620000  89192.972704
    7788.7791  600429.810000  89816.504372
    7793.8071  600848.120000  90365.123454
    7799.0367  600742.500000  90776.840286
    7804.1174  601474.000000  91239.636117
    7809.3353  601870.620000  91680.518204
    7814.4169  602076.310000  92119.495471
    7819.7142  602454.060000  92665.562872
    7824.8360  602729.940000  93230.715767
    7830.1349  603027.880000  93782.946378
    7835.2839  603396.940000  94358.273314
    7840.6368  603630.060000  94960.681487
    7845.8790  603800.310000  95592.171697
    7851.2733  603301.620000  96167.750798
    7856.5170  604700.060000  97002.414166
    7861.9396  596796.560000  96479.155979
    7867.2245  605115.120000  98585.985924
    7872.6889  594871.810000  97710.901770
    7878.0020  607075.620000  100455.893769
    7883.4420  606748.440000  101148.959163
    7888.7834  606994.380000  101889.106671
    7894.3054  606997.440000  102548.347837
    7899.7021  607129.500000  103278.664194
    7905.2667  607322.690000  104053.060307
    7910.6922  607500.000000  104775.521928
    7916.2594  607884.380000  105525.074684
    7921.8078  607975.810000  106203.715598
    7927.4046  608090.310000  106895.412922
    7932.9154  608329.940000  107565.191815
    7938.5553  608552.620000  108149.062476
    7944.1091  608639.440000  108685.994441
    7949.7791  608921.250000  109298.005711
    7955.3491  609784.190000  110093.092978
    7960.9679  609730.190000  110724.257927
    7966.5813  607998.310000  111026.487876
    7972.2844  610695.500000  112095.800984
    7978.1320  610865.750000  112697.192928
    7983.9068  610785.060000  113338.647021
    7989.7038  611022.500000  114116.183552
    7995.3728  611022.000000  114841.792645
    8001.2144  611126.560000  115555.458346
    8006.8729  611285.190000  116299.214996
    8012.7731  611525.880000  117134.023169
    8018.5035  611755.690000  117924.914421
    8024.5040  612106.560000  118800.876518
    8030.2931  612256.500000  119607.902333
    8036.2705  612265.500000  120420.009625
    8042.0910  612441.620000  121217.181312
    8048.0310  612486.750000  122099.417391
    8053.8414  612544.000000  122915.727290
    8059.7299  612584.310000  123789.096384
    8065.7525  612730.690000  124664.534822
    8071.8403  612355.120000  125435.047609
    8077.9096  612869.690000  126353.639187
    8083.7785  613343.250000  127212.272769
    8085.7927  613264.880000  127395.554311

