# XDI/1.0 GSE/1.0
# Column.1: energy eV
# Column.2: mutrans
# Column.3: i0
# Element.edge: K
# Element.symbol: Fe
# Scan.edge_energy: 7112.
# Mono.name: Si 111
# Mono.d_spacing: 3.13550
# Beamline.name: 13-BM-D
# Beamline.collimation: none
# Beamline.focusing: no
# Beamline.harmonic_rejection: detuned 50%
# Facility.name: APS
# Facility.energy: 7.00 GeV
# Facility.xray_source: APS bending magnet
# Scan.start_time: 2002-03-16T17:50:01
# Detector.I0: 15cm  N2
# Detector.I1: 15cm  N2
# Sample.name: FeN
# Sample.prep: powder on tape, 5 layers
# ///
# room temperature
# measured at beamline 13-BM-D
# vert slits = 2mm (at 45m)
#----
#   energy       mutrans            i0
  6962.0000      -0.39452033        302897.20
  6972.0000      -0.41004339        304569.20
  6982.0000      -0.42398716        304504.20
  6992.0000      -0.43863027        304514.20
  7002.0000      -0.45328045        304407.20
  7012.0000      -0.46719775        304369.20
  7022.0000      -0.48074729        304358.20
  7032.0000      -0.49471379        304033.20
  7042.0000      -0.50837612        304549.20
  7052.0000      -0.52101087        304135.20
  7062.0000      -0.53247605        304266.20
  7072.0000      -0.54415935        304132.20
  7082.0000      -0.55351325        304163.20
  7092.0000      -0.55755755        304151.20
  7092.5000      -0.55730376        303770.20
  7093.0000      -0.55658578        303646.20
  7093.5000      -0.55704638        303717.20
  7094.0000      -0.55714628        303709.20
  7094.5000      -0.55735647        303632.20
  7095.0000      -0.55686858        303665.20
  7095.5000      -0.55670547        303530.20
  7096.0000      -0.55602858        303509.20
  7096.5000      -0.55511572        303490.20
  7097.0000      -0.55491743        303541.20
  7097.5000      -0.55477782        303534.20
  7098.0000      -0.55423032        303471.20
  7098.5000      -0.55304013        303466.20
  7099.0000      -0.55352084        303365.20
  7099.5000      -0.55153123        303521.20
  7100.0000      -0.55030881        303402.20
  7100.5000      -0.54984926        303347.20
  7101.0000      -0.54798066        303327.20
  7101.5000      -0.54659930        303315.20
  7102.0000      -0.54532980        303276.20
  7102.5000      -0.54322142        303348.20
  7103.0000      -0.54136235        303231.20
  7103.5000      -0.53907318        303205.20
  7104.0000      -0.53708858        303106.20
  7104.5000      -0.53333640        303044.20
  7105.0000      -0.52933683        303620.20
  7105.5000      -0.52463433        304831.20
  7106.0000      -0.52058277        305043.20
  7106.5000      -0.51464153        305012.20
  7107.0000      -0.50813033        305045.20
  7107.5000      -0.49919377        304889.20
  7108.0000      -0.48718771        304891.20
  7108.5000      -0.47184736        304901.20
  7109.0000      -0.44930404        304858.20
  7109.5000      -0.41243353        304782.20
  7110.0000      -0.34785250        304812.20
  7110.5000      -0.24065089        304785.20
  7111.0000      -0.79047370E-01    304818.20
  7111.5000       0.81330290E-01    304759.20
  7112.0000       0.19336237        304766.20
  7112.5000       0.28343492        304670.20
  7113.0000       0.36888955        304692.20
  7113.5000       0.46081538        304652.20
  7114.0000       0.57035120        304631.20
  7114.5000       0.68762032        304610.20
  7115.0000       0.78034019        304537.20
  7115.5000       0.86163343        304525.20
  7116.0000       0.92621294        304229.20
  7116.5000       0.97035340        303962.20
  7117.0000        1.0151687        304415.20
  7117.5000        1.0744847        305040.20
  7118.0000        1.1356097        304851.20
  7118.5000        1.2119557        304552.20
  7119.0000        1.2917658        304402.20
  7119.5000        1.3809092        304389.20
  7120.0000        1.4725352        304313.20
  7120.5000        1.5566263        304379.20
  7121.0000        1.6378835        304377.20
  7121.5000        1.7145819        304335.20
  7122.0000        1.7847573        304265.20
  7122.5000        1.8548625        304268.20
  7123.0000        1.9217551        304231.20
  7123.5000        1.9796626        304159.20
  7124.0000        2.0342233        304141.20
  7124.5000        2.0843749        304114.20
  7125.0000        2.1345050        304127.20
  7125.5000        2.1882535        304125.20
  7126.0000        2.2393303        304048.20
  7126.5000        2.2923605        304057.20
  7127.0000        2.3431392        304035.20
  7127.5000        2.3891716        303931.20
  7128.0000        2.4379070        303963.20
  7128.5000        2.4827629        303910.20
  7129.0000        2.5151699        303852.20
  7129.5000        2.5443829        303830.20
  7130.0000        2.5652081        303852.20
  7130.5000        2.5783389        303797.20
  7131.0000        2.5826645        303751.20
  7131.5000        2.5828964        303795.20
  7132.0000        2.5800436        303761.20
  7132.8830        2.5575036        303791.20
  7133.7850        2.5156642        303730.20
  7134.7070        2.4731411        303692.20
  7135.6470        2.4363335        303748.20
  7136.6060        2.4081577        303722.20
  7137.5840        2.3756248        303725.20
  7138.5820        2.3496910        303675.20
  7139.5990        2.3274083        303667.20
  7140.6340        2.3155925        304507.20
  7141.6890        2.3051629        305378.20
  7142.7630        2.3017678        305522.20
  7143.8560        2.3089815        305550.20
  7144.9680        2.3242530        305633.20
  7146.0990        2.3479911        305587.20
  7147.2490        2.3766555        305632.20
  7148.4180        2.4034421        305523.20
  7149.6060        2.4238247        305436.20
  7150.8140        2.4362397        305434.20
  7152.0410        2.4357449        305420.20
  7153.2860        2.4217475        305388.20
  7154.5510        2.4012682        305290.20
  7155.8340        2.3722427        305337.20
  7157.1370        2.3437640        305340.20
  7158.4590        2.3158582        305277.20
  7159.8000        2.2866433        305286.20
  7161.1600        2.2580742        305248.20
  7162.5390        2.2277029        305191.20
  7163.9370        2.1979568        305190.20
  7165.3540        2.1723402        305144.20
  7166.7910        2.1528466        305099.20
  7168.2460        2.1427723        305092.20
  7169.7200        2.1393172        304974.20
  7171.2140        2.1385364        304057.20
  7172.7260        2.1541081        306122.20
  7174.2580        2.1708139        305038.20
  7175.8090        2.1879717        304931.20
  7177.3780        2.2058667        304990.20
  7178.9670        2.2283883        304936.20
  7180.5750        2.2519309        304909.20
  7182.2030        2.2781705        304867.20
  7183.8490        2.3058186        304866.20
  7185.5140        2.3322684        304858.20
  7187.1980        2.3517283        304851.20
  7188.9010        2.3679830        304701.20
  7190.6240        2.3858745        304713.20
  7192.3650        2.3964133        304767.20
  7194.1260        2.4029591        304690.20
  7195.9060        2.4002281        304708.20
  7197.7050        2.3925558        304644.20
  7199.5220        2.3726335        304609.20
  7201.3590        2.3476993        304640.20
  7203.2150        2.3179231        304527.20
  7205.0900        2.2867924        304485.20
  7206.9840        2.2593108        304534.20
  7208.8970        2.2343128        304497.20
  7210.8300        2.2085250        304482.20
  7212.7810        2.1860428        304468.20
  7214.7510        2.1669266        304457.20
  7216.7410        2.1557126        304386.20
  7218.7500        2.1515654        304416.20
  7220.7770        2.1510470        304327.20
  7222.8240        2.1569214        304296.20
  7224.8900        2.1638777        304331.20
  7226.9750        2.1707087        304296.20
  7229.0790        2.1772310        304267.20
  7231.2020        2.1774797        304175.20
  7233.3440        2.1753734        304169.20
  7235.5050        2.1723424        304179.20
  7237.6850        2.1753136        304142.20
  7239.8850        2.1807733        304665.20
  7242.1030        2.1928327        305709.20
  7244.3410        2.2123470        306050.20
  7246.5970        2.2329250        306136.20
  7248.8730        2.2470902        305953.20
  7251.1670        2.2555892        305912.20
  7253.4810        2.2584225        305938.20
  7255.8140        2.2531759        305898.20
  7258.1660        2.2397742        305864.20
  7260.5370        2.2184843        305838.20
  7262.9270        2.1891328        305812.20
  7265.3360        2.1553759        305466.20
  7267.7650        2.1230915        306141.20
  7270.2120        2.0991166        306044.20
  7272.6790        2.0781689        305780.20
  7275.1640        2.0675968        305695.20
  7277.6680        2.0682356        305653.20
  7280.1920        2.0766367        305615.20
  7282.7350        2.0848978        305544.20
  7285.2970        2.0896042        305660.20
  7287.8770        2.0922829        305629.20
  7290.4780        2.0890617        305575.20
  7293.0970        2.0871777        305540.20
  7295.7350        2.0847834        305501.20
  7298.3920        2.0848077        305428.20
  7301.0680        2.0857050        305356.20
  7303.7640        2.0841490        304616.20
  7306.4780        2.0909523        306218.20
  7309.2110        2.0963836        305404.20
  7311.9640        2.1026520        305302.20
  7314.7360        2.1103157        305324.20
  7317.5260        2.1174034        305302.20
  7320.3360        2.1150186        305296.20
  7323.1650        2.1111924        305311.20
  7326.0130        2.1003002        305222.20
  7328.8800        2.0832449        305208.20
  7331.7660        2.0599053        305165.20
  7334.6710        2.0367224        305109.20
  7337.5960        2.0137949        305123.20
  7340.5390        1.9944153        305101.20
  7343.5010        1.9775819        305073.20
  7346.4830        1.9652200        305093.20
  7349.4830        1.9577240        305067.20
  7352.5030        1.9539427        304960.20
  7355.5420        1.9534833        304961.20
  7358.6000        1.9522295        304917.20
  7361.6760        1.9512239        304885.20
  7364.7720        1.9525901        304879.20
  7367.8870        1.9544817        304842.20
  7371.0210        1.9583949        304889.20
  7374.1750        1.9595395        304855.20
  7377.3470        1.9563955        304853.20
  7380.5380        1.9533438        304721.20
  7383.7490        1.9502538        304737.20
  7386.9780        1.9466122        304652.20
  7390.2270        1.9433662        304726.20
  7393.4940        1.9384988        304643.20
  7396.7810        1.9359952        304609.20
  7400.0870        1.9314801        304596.20
  7403.4120        1.9265889        304586.20
  7406.7550        1.9197112        305185.20
  7410.1190        1.9136829        305940.20
  7413.5000        1.9011587        305633.20
  7416.9020        1.8928240        307099.20
  7420.3220        1.8865440        306410.20
  7423.7610        1.8806251        306110.20
  7427.2200        1.8707405        306521.20
  7430.6970        1.8626146        306243.20
  7434.1940        1.8533135        306292.20
  7437.7090        1.8422846        306170.20
  7441.2440        1.8311577        306221.20
  7444.7980        1.8236959        306218.20
  7448.3710        1.8155554        306187.20
  7451.9620        1.8083586        306157.20
  7455.5740        1.8035939        306171.20
  7459.2040        1.7995925        306188.20
  7462.8530        1.7969810        306071.20
  7466.5210        1.7937972        306048.20
  7470.2080        1.7902838        306071.20
  7473.9150        1.7872589        305941.20
  7477.6400        1.7865435        306140.20
  7481.3850        1.7819097        305907.20
  7485.1480        1.7794616        305888.20
  7488.9310        1.7748115        305867.20
  7492.7330        1.7709367        305783.20
  7496.5540        1.7640095        305808.20
  7500.3940        1.7571082        305797.20
  7504.2530        1.7456639        304741.20
  7508.1310        1.7370867        306433.20
  7512.0280        1.7285058        305741.20
  7515.9440        1.7205197        305734.20
  7519.8790        1.7123073        305694.20
  7523.8340        1.7055488        305611.20
  7527.8070        1.6994388        305708.20
  7531.8000        1.6917320        305652.20
  7535.8120        1.6852404        305616.20
  7539.8420        1.6761847        305619.20
  7543.8920        1.6728243        305526.20
  7547.9610        1.6654235        305510.20
  7552.0490        1.6590685        305524.20
  7556.1560        1.6538143        305376.20
  7560.2820        1.6477429        305455.20
  7564.4270        1.6427827        305510.20
  7568.5910        1.6389113        305447.20
  7572.7740        1.6333452        305421.20
  7576.9770        1.6282828        305392.20
  7581.1980        1.6232008        305385.20
  7585.4390        1.6157330        305357.20
  7589.6980        1.6098155        305121.20
  7593.9770        1.6000299        305404.20
  7598.2750        1.5940299        305256.20
  7602.5920        1.5860278        305231.20
  7606.9280        1.5785479        305201.20
  7611.2830        1.5707797        305283.20
  7615.6570        1.5624554        305128.20
  7620.0500        1.5563674        305130.20
  7624.4620        1.5496971        305042.20
  7628.8940        1.5427461        305104.20
  7633.3440        1.5364389        305017.20
  7637.8130        1.5308779        305008.20
  7642.3020        1.5219034        304917.20
  7646.8100        1.5157407        304883.20
  7651.3360        1.5074366        304836.20
  7655.8820        1.5017550        304806.20
  7660.4470        1.4871583        303035.20
  7665.0300        1.4863503        306243.20
  7669.6340        1.4817572        304822.20
  7674.2550        1.4742901        304699.20
  7678.8960        1.4685075        304727.20
  7683.5570        1.4624214        304924.20
  7688.2360        1.4544550        304667.20
  7692.9350        1.4486499        304632.20
  7697.6520        1.4443102        304682.20
  7702.3890        1.4370045        304543.20
  7707.1440        1.4320542        304601.20
  7711.9190        1.4251003        304561.20
  7716.7120        1.4184456        304565.20
  7721.5250        1.4132472        304457.20
  7726.3570        1.4060592        304402.20
  7731.2080        1.3987387        304304.20
  7736.0780        1.3932019        300767.20
  7740.9670        1.3814462        308151.20
  7745.8750        1.3793922        304444.20
  7750.8030        1.3699480        304211.20
  7755.7500        1.3637215        304325.20
  7760.7150        1.3541758        304277.20
  7765.6990        1.3482502        304293.20
  7770.7030        1.3389684        304240.20
  7775.7260        1.3331911        303906.20
  7780.7670        1.3243244        304528.20
  7785.8280        1.3175360        304122.20
  7790.9080        1.3109106        304128.20
  7796.0070        1.3036526        304153.20
  7801.1250        1.2967532        304066.20
  7806.2620        1.2893801        304145.20
  7811.4180        1.2819549        304032.20
  7816.5940        1.2763373        303988.20
  7821.7880        1.2698906        304032.20
  7827.0010        1.2617683        303462.20
  7832.2340        1.2554932        304424.20
  7837.4850        1.2484858        303992.20
  7842.7560        1.2418325        303856.20
  7848.0460        1.2346849        303933.20
  7853.3540        1.2279459        303790.20
  7858.6830        1.2208663        303803.20
  7864.0300        1.2145149        303958.20
  7869.3960        1.2062968        303799.20
  7874.7810        1.1996756        303759.20
  7880.1850        1.1930471        303681.20
  7885.6080        1.1852864        303702.20
  7891.0510        1.1781062        303647.20
  7896.5120        1.1724300        303582.20
  7901.9920        1.1649869        303623.20
  7907.4920        1.1580931        303648.20
  7913.0110        1.1512360        303622.20
  7918.5480        1.1433490        303505.20
  7924.1050        1.1362719        303539.20
  7929.6810        1.1282946        303479.20
  7935.2760        1.1205826        303377.20
  7940.8900        1.1139785        303080.20
  7946.5230        1.1064854        304074.20
  7952.1750        1.1004141        304196.20
  7957.8470        1.0911758        304171.20
  7963.5370        1.0841160        304098.20
  7969.2470        1.0761752        304239.20
