# XDI/1.0
# Column.1: energy eV
# Column.2: i0
# Column.3: itrans
# Beamline.name: GSECARS 13BM-D
# Beamline.notes: vert slits = 2mm (at 45m)
# Beamline.collimation: none
# Beamline.focusing: no
# Beamline.harmonic_rejection: detuned 50%
# Facility.name: APS
# Facility.energy: 7.00 GeV
# Facility.xray_source: APS bending magnet
# Detector.I0: N2 15cm
# Detector.I1: N2 15cm
# Element.edge: K
# Element.symbol: Fe
# Mono.d_spacing: 3.13550
# Mono.name: Si(111)
# Mono.notes: unfocussed, detuned 50%
# Sample.formula: FeN
# Sample.name: FeN powder  Room Temperature
# Sample.prep: powder on tape, 5 layers
# Sample.reference: none
# Sample.temperature: Room Temperature
# Scan.edge_energy: 7112.
# Scan.start_time: 2002-03-16 17:50:01
# ///
#    Note: mono d_spacing is nominal!
#     Energy drive values recorded (encoder used, not recorded)
#-------------
#   energy   i0   itrans
    6962.0000  302897.200000  449400.199652
    6972.0000  304569.200000  458950.200775
    6982.0000  304504.200000  465295.198737
    6992.0000  304514.200000  472174.202170
    7002.0000  304407.200000  478974.197628
    7012.0000  304369.200000  485626.198083
    7022.0000  304358.200000  492233.199658
    7032.0000  304033.200000  498623.197845
    7042.0000  304549.200000  506340.197500
    7052.0000  304135.200000  512081.201622
    7062.0000  304266.200000  518209.202282
    7072.0000  304132.200000  524068.198310
    7082.0000  304163.200000  529047.198218
    7092.0000  304151.200000  531170.199463
    7092.5000  303770.200000  530370.200647
    7093.0000  303646.200000  529773.198636
    7093.5000  303717.200000  530141.199537
    7094.0000  303709.200000  530180.197819
    7094.5000  303632.200000  530157.202206
    7095.0000  303665.200000  529956.198464
    7095.5000  303530.200000  529634.200921
    7096.0000  303509.200000  529239.199727
    7096.5000  303490.200000  528723.198166
    7097.0000  303541.200000  528707.199692
    7097.5000  303534.200000  528621.201154
    7098.0000  303471.200000  528222.202412
    7098.5000  303466.200000  527585.198956
    7099.0000  303365.200000  527663.199410
    7099.5000  303521.200000  526885.200943
    7100.0000  303402.200000  526035.198628
    7100.5000  303347.200000  525698.200142
    7101.0000  303327.200000  524682.202565
    7101.5000  303315.200000  523937.199489
    7102.0000  303276.200000  523205.201320
    7102.5000  303348.200000  522227.199164
    7103.0000  303231.200000  521056.197619
    7103.5000  303205.200000  519820.200761
    7104.0000  303106.200000  518620.197812
    7104.5000  303044.200000  516572.201880
    7105.0000  303620.200000  515488.197642
    7105.5000  304831.200000  515116.202317
    7106.0000  305043.200000  513390.197996
    7106.5000  305012.200000  510297.202409
    7107.0000  305045.200000  507040.200994
    7107.5000  304889.200000  502272.199048
    7108.0000  304891.200000  496281.200047
    7108.5000  304901.200000  488742.198832
    7109.0000  304858.200000  477780.198264
    7109.5000  304782.200000  460370.202177
    7110.0000  304812.200000  431621.198932
    7110.5000  304785.200000  387710.201113
    7111.0000  304818.200000  329891.200062
    7111.5000  304759.200000  280954.199960
    7112.0000  304766.200000  251183.200477
    7112.5000  304670.200000  229475.199411
    7113.0000  304692.200000  210695.199446
    7113.5000  304652.200000  192165.199870
    7114.0000  304631.200000  172216.200070
    7114.5000  304610.200000  153149.199512
    7115.0000  304537.200000  139554.200127
    7115.5000  304525.200000  128653.200031
    7116.0000  304229.200000  120490.200347
    7116.5000  303962.200000  115186.200248
    7117.0000  304415.200000  110302.198607
    7117.5000  305040.200000  104163.197005
    7118.0000  304851.200000  97926.195589
    7118.5000  304552.200000  90639.200949
    7119.0000  304402.200000  83645.200791
    7119.5000  304389.200000  76508.201614
    7120.0000  304313.200000  69792.198502
    7120.5000  304379.200000  64177.199042
    7121.0000  304377.200000  59168.199191
    7121.5000  304335.200000  54792.198766
    7122.0000  304265.200000  51067.198830
    7122.5000  304268.200000  47610.201205
    7123.0000  304231.200000  44524.198980
    7123.5000  304159.200000  42009.200278
    7124.0000  304141.200000  39776.200946
    7124.5000  304114.200000  37827.198797
    7125.0000  304127.200000  35979.201484
    7125.5000  304125.200000  34096.200600
    7126.0000  304048.200000  32390.201087
    7126.5000  304057.200000  30718.200884
    7127.0000  304035.200000  29195.199182
    7127.5000  303931.200000  27872.199546
    7128.0000  303963.200000  26549.200691
    7128.5000  303910.200000  25380.200522
    7129.0000  303852.200000  24566.199621
    7129.5000  303830.200000  23857.200815
    7130.0000  303852.200000  23367.199283
    7130.5000  303797.200000  23058.200438
    7131.0000  303751.200000  22955.198965
    7131.5000  303795.200000  22953.200685
    7132.0000  303761.200000  23016.198863
    7132.8830  303791.200000  23543.199809
    7133.7850  303730.200000  24544.200824
    7134.7070  303692.200000  25607.200680
    7135.6470  303748.200000  26572.200325
    7136.6060  303722.200000  27329.201098
    7137.5840  303725.200000  28233.198724
    7138.5820  303675.200000  28970.199818
    7139.5990  303667.200000  29622.199546
    7140.6340  304507.200000  30057.199977
    7141.6890  305378.200000  30459.200770
    7142.7630  305522.200000  30577.200322
    7143.8560  305550.200000  30360.201390
    7144.9680  305633.200000  29908.199995
    7146.0990  305587.200000  29202.200663
    7147.2490  305632.200000  28381.198981
    7148.4180  305523.200000  27621.200635
    7149.6060  305436.200000  27056.200937
    7150.8140  305434.200000  26722.199738
    7152.0410  305420.200000  26734.199699
    7153.2860  305388.200000  27108.199703
    7154.5510  305290.200000  27660.201183
    7155.8340  305337.200000  28479.201237
    7157.1370  305340.200000  29302.199013
    7158.4590  305277.200000  30125.199564
    7159.8000  305286.200000  31019.200921
    7161.1600  305248.200000  31914.198862
    7162.5390  305191.200000  32892.200587
    7163.9370  305190.200000  33885.201624
    7165.3540  305144.200000  34759.198839
    7166.7910  305099.200000  35438.201249
    7168.2460  305092.200000  35796.199409
    7169.7200  304974.200000  35906.200012
    7171.2140  304057.200000  35826.199007
    7172.7260  306122.200000  35512.198907
    7174.2580  305038.200000  34800.199331
    7175.8090  304931.200000  34196.198311
    7177.3780  304990.200000  33596.199315
    7178.9670  304936.200000  32842.200019
    7180.5750  304909.200000  32075.199407
    7182.2030  304867.200000  31240.201404
    7183.8490  304866.200000  30388.200506
    7185.5140  304858.200000  29594.198647
    7187.1980  304851.200000  29023.199377
    7188.9010  304701.200000  28541.199054
    7190.6240  304713.200000  28036.199273
    7192.3650  304767.200000  27747.199231
    7194.1260  304690.200000  27559.200125
    7195.9060  304708.200000  27636.199718
    7197.7050  304644.200000  27843.199078
    7199.5220  304609.200000  28400.198755
    7201.3590  304640.200000  29120.200486
    7203.2150  304527.200000  29989.199792
    7205.0900  304485.200000  30933.201266
    7206.9840  304534.200000  31800.200542
    7208.8970  304497.200000  32601.199811
    7210.8300  304482.200000  33451.198949
    7212.7810  304468.200000  34210.200102
    7214.7510  304457.200000  34869.200032
    7216.7410  304386.200000  35254.200662
    7218.7500  304416.200000  35404.199534
    7220.7770  304327.200000  35412.201588
    7222.8240  304296.200000  35201.199867
    7224.8900  304331.200000  34961.200241
    7226.9750  304296.200000  34719.200732
    7229.0790  304267.200000  34490.201277
    7231.2020  304175.200000  34471.198566
    7233.3440  304169.200000  34543.200376
    7235.5050  304179.200000  34649.198755
    7237.6850  304142.200000  34542.199663
    7239.8850  304665.200000  34413.198522
    7242.1030  305709.200000  34117.198886
    7244.3410  306050.200000  33495.199859
    7246.5970  306136.200000  32822.199516
    7248.8730  305953.200000  32341.199672
    7251.1670  305912.200000  32063.199283
    7253.4810  305938.200000  31975.200590
    7255.8140  305898.200000  32139.199935
    7258.1660  305864.200000  32569.198570
    7260.5370  305838.200000  33267.199247
    7262.9270  305812.200000  34255.200344
    7265.3360  305466.200000  35391.201151
    7267.7650  306141.200000  36633.200014
    7270.2120  306044.200000  37510.201499
    7272.6790  305780.200000  38271.199544
    7275.1640  305695.200000  38667.201224
    7277.6680  305653.200000  38637.199342
    7280.1920  305615.200000  38309.200692
    7282.7350  305544.200000  37985.201475
    7285.2970  305660.200000  37821.201341
    7287.8770  305629.200000  37716.199702
    7290.4780  305575.200000  37831.201633
    7293.0970  305540.200000  37898.201514
    7295.7350  305501.200000  37984.200866
    7298.3920  305428.200000  37974.201696
    7301.0680  305356.200000  37931.198923
    7303.7640  304616.200000  37898.200227
    7306.4780  306218.200000  37839.200659
    7309.2110  305404.200000  37534.201043
    7311.9640  305302.200000  37287.200057
    7314.7360  305324.200000  37005.200725
    7317.5260  305302.200000  36741.198697
    7320.3360  305296.200000  36828.199883
    7323.1650  305311.200000  36971.198267
    7326.0130  305222.200000  37365.201718
    7328.8800  305208.200000  38006.198570
    7331.7660  305165.200000  38898.199699
    7334.6710  305109.200000  39803.201363
    7337.5960  305123.200000  40728.200092
    7340.5390  305101.200000  41522.200037
    7343.5010  305073.200000  42223.200625
    7346.4830  305093.200000  42751.201647
    7349.4830  305067.200000  43069.198093
    7352.5030  304960.200000  43217.200524
    7355.5420  304961.200000  43237.200847
    7358.6000  304917.200000  43285.199530
    7361.6760  304885.200000  43324.201818
    7364.7720  304879.200000  43264.201271
    7367.8870  304842.200000  43177.199461
    7371.0210  304889.200000  43015.199583
    7374.1750  304855.200000  42961.201160
    7377.3470  304853.200000  43096.200995
    7380.5380  304721.200000  43209.201066
    7383.7490  304737.200000  43345.199800
    7386.9780  304652.200000  43491.199099
    7390.2270  304726.200000  43643.199259
    7393.4940  304643.200000  43844.200648
    7396.7810  304609.200000  43949.200971
    7400.0870  304596.200000  44146.200524
    7403.4120  304586.200000  44361.200914
    7406.7550  305185.200000  44755.198494
    7410.1190  305940.200000  45137.200803
    7413.5000  305633.200000  45660.198577
    7416.9020  307099.200000  46263.199712
    7420.3220  306410.200000  46450.197964
    7423.7610  306110.200000  46680.198877
    7427.2200  306521.200000  47207.199890
    7430.6970  306243.200000  47549.199671
    7434.1940  306292.200000  48001.201809
    7437.7090  306170.200000  48514.200867
    7441.2440  306221.200000  49065.199546
    7444.7980  306218.200000  49432.199309
    7448.3710  306187.200000  49831.199289
    7451.9620  306157.200000  50186.200352
    7455.5740  306171.200000  50428.199002
    7459.2040  306188.200000  50633.197871
    7462.8530  306071.200000  50746.200830
    7466.5210  306048.200000  50904.198524
    7470.2080  306071.200000  51087.198878
    7473.9150  305941.200000  51220.202107
    7477.6400  306140.200000  51290.198265
    7481.3850  305907.200000  51489.200569
    7485.1480  305888.200000  51612.199849
    7488.9310  305867.200000  51849.200798
    7492.7330  305783.200000  52036.201243
    7496.5540  305808.200000  52402.201722
    7500.3940  305797.200000  52763.197843
    7504.2530  304741.200000  53186.201469
    7508.1310  306433.200000  53942.199145
    7512.0280  305741.200000  54284.199128
    7515.9440  305734.200000  54718.201039
    7519.8790  305694.200000  55162.201090
    7523.8340  305611.200000  55521.198670
    7527.8070  305708.200000  55879.201918
    7531.8000  305652.200000  56301.200277
    7535.8120  305616.200000  56661.199616
    7539.8420  305619.200000  57177.198000
    7543.8920  305526.200000  57352.201847
    7547.9610  305510.200000  57775.202778
    7552.0490  305524.200000  58146.197749
    7556.1560  305376.200000  58424.198341
    7560.2820  305455.200000  58795.200241
    7564.4270  305510.200000  59098.199932
    7568.5910  305447.200000  59315.202095
    7572.7740  305421.200000  59641.199828
    7576.9770  305392.200000  59938.201245
    7581.1980  305385.200000  60242.201637
    7585.4390  305357.200000  60688.197476
    7589.6980  305121.200000  61001.202355
    7593.9770  305404.200000  61658.200953
    7598.2750  305256.200000  61999.202621
    7602.5920  305231.200000  62492.198330
    7606.9280  305201.200000  62955.198044
    7611.2830  305283.200000  63463.197464
    7615.6570  305128.200000  63961.197867
    7620.0500  305130.200000  64352.203171
    7624.4620  305042.200000  64764.202988
    7628.8940  305104.200000  65229.202359
    7633.3440  305017.200000  65623.198458
    7637.8130  305008.200000  65987.198526
    7642.3020  304917.200000  66562.201031
    7646.8100  304883.200000  66966.202542
    7651.3360  304836.200000  67514.202501
    7655.8820  304806.200000  67892.200792
    7660.4470  303035.200000  68490.200071
    7665.0300  306243.200000  69271.201533
    7669.6340  304822.200000  69267.197654
    7674.2550  304699.200000  69758.198880
    7678.8960  304727.200000  70169.198725
    7683.5570  304924.200000  70643.197580
    7688.2360  304667.200000  71148.200554
    7692.9350  304632.200000  71554.203062
    7697.6520  304682.200000  71877.197040
    7702.3890  304543.200000  72371.201361
    7707.1440  304601.200000  72744.200164
    7711.9190  304561.200000  73242.199604
    7716.7120  304565.200000  73732.198200
    7721.5250  304457.200000  74090.203640
    7726.3570  304402.200000  74611.201739
    7731.2080  304304.200000  75135.200122
    7736.0780  300767.200000  74674.199449
    7740.9670  308151.200000  77412.198506
    7745.8750  304444.200000  76638.197867
    7750.8030  304211.200000  77306.202912
    7755.7500  304325.200000  77818.202296
    7760.7150  304277.200000  78552.196551
    7765.6990  304293.200000  79023.202374
    7770.7030  304240.200000  79746.202342
    7775.7260  303906.200000  80120.199528
    7780.7670  304528.200000  80999.201265
    7785.8280  304122.200000  81442.202291
    7790.9080  304128.200000  81985.198349
    7796.0070  304153.200000  82589.200038
    7801.1250  304066.200000  83137.198814
    7806.2620  304145.200000  83774.202912
    7811.4180  304032.200000  84367.201381
    7816.5940  303988.200000  84830.197743
    7821.7880  304032.200000  85391.197085
    7827.0010  303462.200000  85926.197206
    7832.2340  304424.200000  86741.195726
    7837.4850  303992.200000  87227.202992
    7842.7560  303856.200000  87770.202448
    7848.0460  303933.200000  88422.197443
    7853.3540  303790.200000  88978.203174
    7858.6830  303803.200000  89614.203028
    7864.0300  303958.200000  90231.202408
    7869.3960  303799.200000  90928.197522
    7874.7810  303759.200000  91520.197192
    7880.1850  303681.200000  92105.196768
    7885.6080  303702.200000  92829.197266
    7891.0510  303647.200000  93481.195756
    7896.5120  303582.200000  93993.197631
    7901.9920  303623.200000  94708.197468
    7907.4920  303648.200000  95371.204613
    7913.0110  303622.200000  96019.199415
    7918.5480  303505.200000  96742.203414
    7924.1050  303539.200000  97440.200532
    7929.6810  303479.200000  98201.203843
    7935.2760  303377.200000  98928.198149
    7940.8900  303080.200000  99486.201579
    7946.5230  304074.200000  100563.196480
    7952.1750  304196.200000  101216.196444
    7957.8470  304171.200000  102147.199037
    7963.5370  304098.200000  102846.200736
    7969.2470  304239.200000  103714.199460
