# XDI/1.0
# Column.1: energy eV
# Column.2: mutrans
# Column.3: i0
# Element.edge: K
# Element.symbol: Fe
# Scan.start_time: 2001-08-10T11:10:00
# Mono.name: Si 111
# Mono.d_spacing: 3.13553
# Beamline.name: 20BM
# Beamline.focusing: no
# Beamline.harmonic_rejection: detuned
# Detector.I0:  N2 15cm
# Detector.I1:  N2 15cm
# Sample.name: FeO
# Sample.notes: room temperature, powder on tape, 4 layers
# ///
#  data from NXS school, 2001
#------------------------
#   energy     mutrans       i0
  6911.7671      -0.35992590E-01    280101.00
  6916.8730      -0.39081634E-01    278863.00
  6921.7030      -0.42193483E-01    278149.00
  6926.8344      -0.45165576E-01    277292.00
  6931.7399      -0.47365589E-01    265707.00
  6936.9887      -0.51824526E-01    286669.00
  6941.7869      -0.54345142E-01    285989.00
  6946.8779      -0.57534656E-01    284661.00
  6951.9154      -0.60404535E-01    284411.00
  6956.9401      -0.63496774E-01    283577.00
  6961.9621      -0.66253301E-01    283824.00
  6966.8684      -0.69411878E-01    283568.00
  6971.9156      -0.72276060E-01    283397.00
  6976.8572      -0.75346493E-01    283310.00
  6981.9918      -0.78131005E-01    283214.00
  6986.8759      -0.80983962E-01    283061.00
  6991.9328      -0.83849719E-01    282971.00
  6996.9144      -0.86748719E-01    283022.00
  7001.8515      -0.89708205E-01    282885.00
  7006.9934      -0.92703649E-01    282810.00
  7011.8412      -0.95368015E-01    282732.00
  7016.9463      -0.98405177E-01    282596.00
  7021.8712      -0.10117834        282484.00
  7026.8765      -0.10382368        282375.00
  7031.9730      -0.10672080        282225.00
  7036.8361      -0.10943124        282119.00
  7041.8952      -0.11203882        282087.00
  7046.8567      -0.11484428        282034.00
  7051.8254      -0.11746089        282011.00
  7056.8965      -0.12024282        281905.00
  7061.8378      -0.12257262        281847.00
  7066.7546      -0.12499900        281772.00
  7071.8057      -0.12740380        281634.00
  7076.7476      -0.12957813        281516.00
  7081.6860      -0.13160163        281309.00
  7086.7913      -0.13317032        281051.00
  7091.5312      -0.13442890        280416.00
  7096.5552      -0.13462033        277908.00
  7101.5653      -0.13600264        240033.00
  7101.9395      -0.13821163        247919.00
  7102.2817      -0.13848671        257073.00
  7102.6987      -0.13669881        270033.00
  7103.1906      -0.13361964        279482.00
  7103.6399      -0.13235382        282387.00
  7104.0036      -0.13184203        283089.00
  7104.2818      -0.13145725        283283.00
  7104.6241      -0.13105615        283337.00
  7105.0950      -0.13007480        283379.00
  7105.5231      -0.12972524        283327.00
  7105.8763      -0.12906308        283280.00
  7106.2402      -0.12820551        283187.00
  7106.5721      -0.12779651        283067.00
  7107.0646      -0.12650680        283049.00
  7107.5251      -0.12534315        282911.00
  7107.9427      -0.12418890        282903.00
  7108.3176      -0.12289514        282797.00
  7108.5961      -0.12159500        282677.00
  7108.9711      -0.11921916        282618.00
  7109.5068      -0.11541237        282510.00
  7109.9354      -0.11000525        282431.00
  7110.2784      -0.10302579        282346.00
  7110.6214      -0.93821422E-01    282332.00
  7111.0073      -0.81290386E-01    282210.00
  7111.4683      -0.68571128E-01    282123.00
  7111.9186      -0.60274265E-01    282115.00
  7112.3583      -0.53379949E-01    282037.00
  7112.6693      -0.47609055E-01    281994.00
  7112.9374      -0.41369414E-01    281937.00
  7113.3772      -0.34623186E-01    281871.00
  7113.8278      -0.30176765E-01    281825.00
  7114.2462      -0.23621269E-01    281778.00
  7114.5789      -0.13749109E-01    281795.00
  7114.9008      -0.24494087E-02    281840.00
  7115.3194       0.16936533E-01    281698.00
  7115.8132       0.45836189E-01    281660.00
  7116.2426       0.75197507E-01    281583.00
  7116.6721       0.11009566        281567.00
  7116.9728       0.14427841        281577.00
  7117.2627       0.19080203        281547.00
  7117.7783       0.26433047        281547.00
  7118.2402       0.33439169        281500.00
  7118.6270       0.40469157        281460.00
  7118.9708       0.46594703        281469.00
  7119.2931       0.51933041        281427.00
  7119.7660       0.59593646        281425.00
  7120.2067       0.65853366        281361.00
  7120.6367       0.71506333        281376.00
  7121.0344       0.76685939        281330.00
  7121.3247       0.81331120        281224.00
  7121.6473       0.88132224        281254.00
  7122.0990       0.96982546        281217.00
  7122.5507        1.0609442        281234.00
  7122.9272        1.1520083        281186.00
  7123.2500        1.2277466        281156.00
  7123.5943        1.3064567        281139.00
  7124.0785        1.3897857        281237.00
  7124.5412        1.4488121        281092.00
  7124.9718        1.4916355        281111.00
  7125.3377        1.5253895        281108.00
  7125.6392        1.5576798        281113.00
  7125.9945        1.6054069        281001.00
  7126.5329        1.6685989        281104.00
  7126.9744        1.7280946        280979.00
  7127.3191        1.7788395        280857.00
  7127.6315        1.8158746        280685.00
  7127.9977        1.8452568        280560.00
  7128.5149        1.8495809        280587.00
  7128.9244        1.8256022        280673.00
  7129.3555        1.7821155        280602.00
  7129.7111        1.7332258        280574.00
  7129.9806        1.6808437        280588.00
  7130.3903        1.5977283        280512.00
  7130.8539        1.5268502        280368.00
  7131.2852        1.4647408        280353.00
  7131.6087        1.4147310        280324.00
  7131.9323        1.3753900        280355.00
  7132.3314        1.3349634        280358.00
  7132.8384        1.2963582        280325.00
  7133.2484        1.2711328        280340.00
  7133.6585        1.2517658        280358.00
  7134.0146        1.2359428        280338.00
  7134.3060        1.2211765        280400.00
  7134.7701        1.1994605        280376.00
  7135.2559        1.1813965        280369.00
  7135.6770        1.1658542        280380.00
  7135.9902        1.1533380        280318.00
  7136.3141        1.1429410        280310.00
  7136.7570        1.1317763        280299.00
  7137.2322        1.1234352        280348.00
  7137.6428        1.1194838        280287.00
  7138.0533        1.1183458        280265.00
  7138.3667        1.1192256        280233.00
  7138.6801        1.1232701        280231.00
  7139.1016        1.1326786        280223.00
  7139.5880        1.1450271        280226.00
  7139.9664        1.1576786        280223.00
  7140.3015        1.1711663        280225.00
  7140.6043        1.1846449        280199.00
  7141.1017        1.2032606        280261.00
  7141.5451        1.2161074        280234.00
  7141.9670        1.2251375        280277.00
  7142.3456        1.2293467        280266.00
  7142.6810        1.2305564        280215.00
  7143.0165        1.2285678        280222.00
  7143.5034        1.2203257        280148.00
  7143.9688        1.2097022        280235.00
  7144.3693        1.1974111        280259.00
  7144.6616        1.1865185        280184.00
  7145.0081        1.1728950        280209.00
  7145.5061        1.1548904        280141.00
  7145.9285        1.1390832        280171.00
  7146.1342        1.1320942        280202.00
  7147.1308        1.0998926        281607.47
  7148.3769        1.0672428        282953.53
  7149.4825        1.0462001        284295.16
  7150.7729        1.0305708        285557.34
  7151.9661        1.0203347        286899.06
  7153.2031        1.0129244        288155.28
  7154.5382        1.0093910        289438.03
  7155.7110        1.0107830        290658.28
  7157.0580        1.0182706        291973.00
  7158.3621        1.0302146        293176.19
  7159.6775        1.0426520        294404.84
  7161.1349        1.0576181        295627.97
  7162.3752        1.0716599        296860.50
  7163.8554        1.0946207        297949.50
  7165.2383        1.1318477        299143.88
  7166.5673        1.1753118        300242.69
  7168.1256        1.2199916        301310.91
  7169.6520        1.2569450        302427.50
  7171.0481        1.2828485        303495.50
  7172.5757        1.2985035        304598.88
  7174.1587        1.3049304        305727.59
  7175.6768        1.3015198        306769.69
  7177.2065        1.2871232        307837.12
  7178.9337        1.2605068        308895.94
  7180.5524        1.2322326        309864.06
  7182.1171        1.2065797        310682.53
  7183.6825        1.1838061        310947.31
  7185.4567        1.1639835        291081.44
  7187.2319        1.1441377        313204.84
  7188.9312        1.1256682        315022.59
  7190.5875        1.1096090        316211.62
  7192.3105        1.0955437        317246.97
  7194.1551        1.0865875        318316.56
  7196.0336        1.0848043        319271.47
  7197.8472        1.0896318        320241.66
  7199.5848        1.0976847        321266.12
  7201.3452        1.1061971        322265.88
  7203.3158        1.1127269        323200.88
  7205.3535        1.1137379        324151.12
  7207.2492        1.1113734        325150.66
  7209.1459        1.1091910        325885.44
  7211.1209        1.1094735        326697.44
  7213.0750        1.1128175        327662.72
  7215.0412        1.1197526        328640.22
  7217.0748        1.1290785        329532.97
  7219.0322        1.1381600        330473.94
  7221.2010        1.1431486        331416.12
  7223.3269        1.1401358        332369.56
  7225.4540        1.1303143        333202.22
  7227.5271        1.1164000        334086.09
  7229.6901        1.0995240        334967.16
  7231.9100        1.0815925        335961.47
  7234.0757        1.0654326        336863.97
  7236.2428        1.0548029        337815.69
  7238.4892        1.0525590        338886.59
  7240.7815        1.0627457        329086.72
  7243.0196        1.0736859        335643.00
  7245.2257        1.0889298        339365.53
  7247.5225        1.1001406        338137.22
  7249.8877        1.1054398        341598.09
  7252.2322        1.1045125        342507.16
  7254.4441        1.1010799        343352.41
  7256.8923        1.0972424        344216.84
  7259.2080        1.0958877        344988.47
  7261.6595        1.0970404        345766.25
  7263.9447        1.0995099        346708.22
  7266.3884        1.1014074        347433.34
  7268.9011        1.1022522        348203.62
  7271.3707        1.1011670        348895.09
  7273.9207        1.0968847        349891.75
  7276.5063        1.0896655        349788.53
  7279.0825        1.0796905        350767.47
  7281.4918        1.0677709        351364.59
  7284.1280        1.0535296        351945.88
  7286.6761        1.0388369        352112.28
  7289.1808        1.0252689        350398.84
  7291.9020        1.0125549        350983.59
  7294.6478        1.0049324        355958.44
  7297.3619        1.0017291        355658.47
  7299.8969        1.0020062        353997.62
  7302.5698        1.0061912        357607.94
  7305.3240        1.0118459        358382.41
  7308.1031        1.0176879        358969.97
  7310.9298        1.0233727        359729.72
  7313.6451        1.0270807        360319.56
  7316.3398        1.0289684        360879.56
  7319.1731        1.0292163        361472.69
  7322.1113        1.0282723        362090.97
  7325.0177        1.0262630        363008.34
  7327.7096        1.0234467        363582.88
  7330.5978        1.0195606        363831.53
  7333.6712        1.0146257        364127.31
  7336.4156        1.0094656        365954.19
  7339.2995        1.0037065        366482.22
  7342.4034       0.99705389        366602.38
  7345.3151       0.99097685        367317.62
  7348.2866       0.98544173        367739.03
  7351.3295       0.98071048        369123.53
  7354.3750       0.97719849        369536.16
  7357.4117       0.97406777        370156.88
  7360.4970       0.97046026        370775.72
  7363.5965       0.96636350        371269.69
  7366.7103       0.96222490        371863.75
  7369.8730       0.95827779        372499.94
  7372.9923       0.95487866        370256.25
  7376.1260       0.95285110        373437.62
  7379.4708       0.95062008        374052.16
  7382.5638       0.94927795        374261.75
  7385.6710       0.94801126        363252.47
  7389.1177       0.94779582        376617.31
  7392.2540       0.94684064        376942.25
  7395.5907       0.94532043        377380.25
  7398.9190       0.94316632        377900.41
  7402.0639       0.94014833        378453.62
  7405.5498       0.93564333        378946.97
  7408.7473       0.93086403        379532.38
  7412.2865       0.92480535        380038.91
  7415.6187       0.91896879        380720.53
  7419.0125       0.91265522        381177.25
  7422.4095       0.90751806        381666.06
  7425.9271       0.90324828        382145.97
  7429.3308       0.89957219        381762.97
  7432.8317       0.89699559        383357.03
  7436.3831       0.89824340        348599.22
  7439.7731       0.89159965        382051.50
  7443.4493       0.88850519        383834.84
  7446.9286       0.88637570        384549.31
  7450.5530       0.88420350        385208.84
  7454.1930       0.88242614        385779.47
  7457.6709       0.88077435        386364.16
  7461.4010       0.87910604        386958.97
  7464.9808       0.87727888        387539.84
  7468.7422       0.87478784        388015.81
  7472.3293       0.87206987        388635.84
  7476.0152       0.86870247        389020.97
  7479.6095       0.86531624        389703.19
  7483.6128       0.86097783        390137.47
  7487.2267       0.85599830        390578.84
  7491.0472       0.85092077        390942.31
  7494.8121       0.84579705        391504.84
  7498.5090       0.84120159        391929.44
  7502.5692       0.83695836        392494.12
  7506.2501       0.83334431        392868.88
  7510.1629       0.83024094        393326.72
  7514.0679       0.82719979        393786.62
  7517.8207       0.82412557        394067.62
  7521.9388       0.82091666        394610.69
  7525.8082       0.81767503        394922.81
  7529.6456       0.81443478        395401.03
  7533.6442       0.81121444        395801.31
  7537.6835       0.80791344        396149.66
  7541.5698       0.80507014        396333.09
  7545.7513       0.80179132        395706.59
  7549.7434       0.79719131        364256.16
  7553.5818       0.79649304        398842.81
  7557.8501       0.79338765        399379.50
  7561.9286       0.79049100        399600.28
  7565.8652       0.78791632        399899.12
  7570.2090       0.78442432        400320.03
  7574.3257       0.78082115        400728.00
  7578.4593       0.77708513        401116.06
  7582.4629       0.77342945        401530.19
  7586.9000       0.76942229        401801.34
  7591.0724       0.76559302        402150.59
  7595.2004       0.76206300        402536.91
  7599.5177       0.75857783        403053.28
  7603.8154       0.75473164        403449.69
  7608.1551       0.75102640        403752.19
  7612.2900       0.74767593        404234.75
  7616.5903       0.74405090        404634.38
  7621.0319       0.74058790        404951.06
  7625.4540       0.73722601        405278.81
  7629.7573       0.73385699        403380.62
  7634.1030       0.73050291        406016.47
  7638.5657       0.72746300        405550.41
  7643.1085       0.72352726        403034.38
  7647.6819       0.72084728        407117.44
  7652.1861       0.71756152        407432.53
  7656.7082       0.71426100        407800.69
  7661.1733       0.71117742        408156.94
  7665.9195       0.70759944        408571.19
  7670.5338       0.70381014        408854.53
  7675.2543       0.70021824        409369.94
  7679.8676       0.69665624        409507.38
  7684.6000       0.69306768        409949.88
  7689.2502       0.68939640        410260.44
  7693.9694       0.68570744        410693.03
  7698.8083       0.68213617        407883.72
  7703.6156       0.67846950        411286.44
  7708.4798       0.67464653        411590.22
  7713.2742       0.67104998        411934.03
  7718.1637       0.66755233        412427.94
  7722.9579       0.66408205        412580.88
  7727.8347       0.66044004        412873.84
  7732.5775       0.65695607        413054.88
  7737.5818       0.65340505        413277.00
  7742.5161       0.64994630        413632.12
  7747.5722       0.64660500        413908.31
  7752.5197       0.64337565        414321.56
  7757.5764       0.63975819        414642.88
  7762.5372       0.63621214        414763.22
  7767.6332       0.63254284        415048.59
  7772.6331       0.62894814        415498.06
  7777.7041       0.62522191        415753.56
  7782.7174       0.62168299        415908.09
  7787.8021       0.61803105        416133.69
  7792.8288       0.61444701        416358.31
  7797.9272       0.61087522        416653.03
  7803.0195       0.60738239        416879.75
  7808.1707       0.60372821        417193.53
  7813.3029       0.60015494        417389.38
  7818.4682       0.59631041        417525.25
  7823.6536       0.59281970        417789.16
  7828.8461       0.58935127        418077.16
  7834.0982       0.58569031        418265.16
  7839.3445       0.58211015        418453.22
  7844.6637       0.57866931        418616.31
  7849.9510       0.57495503        418646.47
  7855.2851       0.57136306        418978.69
  7860.6927       0.56780225        418869.91
  7866.0156       0.56432983        419648.19
  7871.4385       0.56090345        418723.53
  7876.7896       0.55726179        420798.91
  7882.2412       0.55344788        420610.31
  7887.5942       0.55009604        420576.78
  7893.1012       0.54652588        420654.28
  7898.4962       0.54290135        420821.84
  7904.0189       0.53916292        421015.41
  7909.3892       0.53583298        421114.06
  7914.9679       0.53222891        421345.72
  7920.3670       0.52888994        421607.44
  7925.9482       0.52528431        421833.19
  7931.3762       0.52161227        421911.00
  7936.9870       0.51824615        422121.81
  7942.4576       0.51476574        422301.69
  7948.1656       0.51125544        422437.62
  7953.7469       0.50842068        418064.59
  7959.5394       0.50409937        422809.56
  7965.1778       0.50064550        422592.62
  7970.9875       0.49705535        423491.69
  7976.6155       0.49325269        414639.81
  7982.4016       0.49008791        423563.97
  7988.0872       0.48647120        423691.16
  7993.8222       0.48299046        423840.41
  7999.4836       0.47952640        423864.66
  8005.2492       0.47593433        424049.97
  8011.1743       0.47233161        424291.34
  8017.0398       0.46887057        424478.72
  8023.0106       0.46510950        424529.16
  8028.7975       0.46141359        424410.59
  8034.6758       0.45779190        424581.09
  8040.4110       0.45437074        424434.62
  8046.4039       0.45079886        424702.22
  8052.3644       0.44715324        424749.81
  8058.3757       0.44352635        424880.47
  8064.2849       0.43996143        425124.16
  8070.2031       0.43657830        423373.88
  8076.0885       0.43291200        425237.62
  8082.0665       0.42947161        425336.41
  8084.0938       0.42842774        425436.22
