# XDI/1.0
# Column.1: energy eV
# Column.2: i0
# Column.3: itrans
# Beamline.name: APS 13-BM-D
# Beamline.notes: vert slits = 2mm (at 45m)
# Detector.I0: N2 15cm
# Detector.I1: N2 15cm
# Element.edge: K
# Element.symbol: Fe
# Mono.d_spacing: 3.13550
# Mono.name: Si(111)
# Mono.notes: unfocussed, detuned 50%
# Sample.formula: FeS2
# Sample.name: FeS2 powder  Room Temperature
# Sample.prep: powder on tape, 4 layers
# Sample.reference: none
# Sample.temperature: Room Temperature
# Scan.start_time: 2002-03-16 15:13:22
# ///
#    Note: mono d_spacing is nominal!
#     Energy drive values recorded (encoder used, not recorded)
#     348 E XMU I0
#-------------
#   energy   i0   itrans
    6911.8277  272002.000000  121091.203452
    6916.9236  270032.000000  120826.202549
    6921.7638  268827.000000  120841.202789
    6926.8750  267514.000000  120853.203083
    6931.7907  255214.000000  115822.202582
    6962.0000  305150.000000  138780.400175
    6972.0000  306445.000000  141215.399951
    6982.0000  306446.000000  143072.400186
    6992.0000  306744.000000  144906.399530
    7002.0000  306246.000000  146611.400220
    7012.0000  306358.000000  148490.400455
    7022.0000  306309.000000  150299.400245
    7032.0000  306019.000000  151960.400143
    7042.0000  306529.000000  154154.399998
    7052.0000  306124.000000  155959.400259
    7062.0000  306188.000000  157881.400653
    7072.0000  306119.000000  159772.400435
    7082.0000  306143.000000  161519.400608
    7092.0000  306098.000000  163311.400721
    7092.5000  305825.000000  163281.400039
    7093.0000  305756.000000  163253.400548
    7093.5000  305745.000000  163187.399598
    7094.0000  305717.000000  163415.400359
    7094.5000  305670.000000  163489.400363
    7095.0000  305666.000000  163527.400354
    7095.5000  305631.000000  163566.399646
    7096.0000  305585.000000  163579.400482
    7096.5000  305536.000000  163758.400060
    7097.0000  305539.000000  163817.399534
    7097.5000  305510.000000  163921.399452
    7098.0000  305466.000000  163909.400542
    7098.5000  305494.000000  163944.400415
    7099.0000  305432.000000  164022.400664
    7099.5000  305503.000000  164181.400726
    7100.0000  305402.000000  164094.399930
    7100.5000  305414.000000  164221.399320
    7101.0000  305391.000000  164216.400423
    7101.5000  305400.000000  164284.400085
    7102.0000  305952.000000  164696.399651
    7102.5000  305420.000000  164373.399915
    7103.0000  304860.000000  164105.400084
    7103.5000  305180.000000  164322.400779
    7104.0000  305180.000000  164427.400175
    7104.5000  305435.000000  164504.400403
    7105.0000  305144.000000  164389.400440
    7105.5000  305045.000000  164363.399443
    7106.0000  304943.000000  164227.400185
    7106.5000  305015.000000  164347.399283
    7107.0000  305023.000000  164341.400363
    7107.5000  304990.000000  164218.399997
    7108.0000  305117.000000  164094.399610
    7108.5000  305305.000000  164100.400215
    7109.0000  304852.000000  163536.399576
    7109.5000  304938.000000  163246.400230
    7110.0000  305214.000000  162506.400700
    7110.5000  304831.000000  161012.400648
    7111.0000  304668.000000  158488.400733
    7111.5000  304489.000000  155543.399898
    7112.0000  304804.000000  153701.399682
    7112.5000  304821.000000  152925.399739
    7113.0000  304700.000000  152857.399289
    7113.5000  304652.000000  152989.400556
    7114.0000  304907.000000  153498.399779
    7114.5000  304536.000000  153304.399909
    7115.0000  305540.000000  152722.399788
    7115.5000  306249.000000  150012.399880
    7116.0000  306100.000000  143913.399449
    7116.5000  305917.000000  134285.399671
    7117.0000  306536.000000  122285.399588
    7117.5000  306925.000000  112360.395039
    7118.0000  306741.000000  106129.404138
    7118.5000  306475.000000  100282.397993
    7119.0000  306428.000000  96077.400085
    7119.5000  306460.000000  93744.401070
    7120.0000  306450.000000  93797.397454
    7120.5000  306582.000000  95097.402545
    7121.0000  306359.000000  96690.399563
    7121.5000  306364.000000  97438.395520
    7122.0000  306349.000000  97250.397989
    7122.5000  306255.000000  96751.398662
    7123.0000  306266.000000  96290.398077
    7123.5000  306230.000000  95912.397959
    7124.0000  306227.000000  95675.404293
    7124.5000  306371.000000  95785.401278
    7125.0000  306051.000000  95854.398201
    7125.5000  306141.000000  95675.396940
    7126.0000  306113.000000  95062.399691
    7126.5000  306099.000000  94135.400721
    7127.0000  306090.000000  92928.397416
    7127.5000  306010.000000  91705.401463
    7128.0000  306003.000000  90557.400184
    7128.5000  305954.000000  89363.396557
    7129.0000  305942.000000  88118.397955
    7129.5000  306047.000000  86891.401901
    7130.0000  305942.000000  85486.403637
    7130.5000  305940.000000  84080.401712
    7131.0000  305777.000000  82753.398104
    7131.5000  305771.000000  81563.401944
    7132.0000  305988.000000  80791.396872
    7132.8830  305946.000000  79254.398738
    7133.7850  305893.000000  77934.401591
    7134.7070  305719.000000  76936.397913
    7135.6470  305734.000000  76311.400420
    7136.6060  305686.000000  76041.400190
    7137.5840  305808.000000  76078.397453
    7138.5820  305655.000000  76281.398545
    7139.5990  305680.000000  76492.401044
    7140.6340  305655.000000  76654.400572
    7141.6890  305647.000000  77084.401219
    7142.7630  305546.000000  77848.399563
    7143.8560  305620.000000  79211.397808
    7144.9680  305565.000000  80522.401236
    7146.0990  305942.000000  81764.400037
    7147.2490  305369.000000  82601.396025
    7148.4180  305508.000000  83592.396488
    7149.6060  305329.000000  84399.399257
    7150.8140  305424.000000  85350.403358
    7152.0410  305227.000000  86151.404179
    7153.2860  305483.000000  86924.396107
    7154.5510  305317.000000  87366.401026
    7155.8340  305327.000000  87915.403956
    7157.1370  305362.000000  88733.399064
    7158.4590  305483.000000  89927.395724
    7159.8000  305185.000000  91348.398400
    7161.1600  305200.000000  92582.403760
    7162.5390  305144.000000  93364.398140
    7163.9370  305132.000000  93249.404260
    7165.3540  305025.000000  92470.404360
    7166.7910  305071.000000  91644.396884
    7168.2460  304988.000000  91004.397686
    7169.7200  304957.000000  90728.395897
    7171.2140  303977.000000  90390.397612
    7172.7260  306335.000000  90868.397127
    7174.2580  305331.000000  90085.402229
    7175.8090  305180.000000  89530.403049
    7177.3780  304691.000000  88632.397257
    7178.9670  304825.000000  87952.398452
    7180.5750  304819.000000  87446.402063
    7182.2030  304876.000000  87137.395936
    7183.8490  304881.000000  86864.396047
    7185.5140  304902.000000  86437.396627
    7187.1980  304750.000000  85940.403061
    7188.9010  304618.000000  85583.399444
    7190.6240  304729.000000  85233.398402
    7192.3650  304624.000000  84667.399110
    7194.1260  304796.000000  84055.399588
    7195.9060  304913.000000  83392.400992
    7197.7050  304714.000000  82811.399892
    7199.5220  304745.000000  82659.400903
    7201.3590  304572.000000  83093.402998
    7203.2150  304614.000000  84597.397296
    7205.0900  304650.000000  86635.397286
    7206.9840  304423.000000  88543.395955
    7208.8970  304251.000000  90276.403920
    7210.8300  304339.000000  91919.400513
    7212.7810  304465.000000  93631.403811
    7214.7510  304344.000000  95267.396772
    7216.7410  304357.000000  96663.401341
    7218.7500  304283.000000  97930.396783
    7220.7770  304310.000000  98775.403237
    7222.8240  304357.000000  99185.402824
    7224.8900  304315.000000  99025.396659
    7226.9750  304319.000000  98476.396827
    7229.0790  304265.000000  97681.397070
    7231.2020  304222.000000  97058.403772
    7233.3440  304141.000000  96622.401089
    7235.5050  304231.000000  96218.397469
    7237.6850  304163.000000  95817.404316
    7239.8850  304198.000000  95347.403954
    7242.1030  304019.000000  94855.397410
    7244.3410  304007.000000  94398.400340
    7246.5970  304050.000000  93846.396092
    7248.8730  303881.000000  93438.398295
    7251.1670  304021.000000  93591.398039
    7253.4810  303919.000000  94416.402989
    7255.8140  303971.000000  95636.400133
    7258.1660  303951.000000  96810.397839
    7260.5370  304123.000000  97551.400610
    7262.9270  303754.000000  97553.404186
    7265.3360  303422.000000  97278.400497
    7267.7650  304213.000000  97112.404216
    7270.2120  304372.000000  96752.399973
    7272.6790  303800.000000  96434.400552
    7275.1640  303768.000000  96529.402606
    7277.6680  303769.000000  97014.402236
    7280.1920  303936.000000  97837.403512
    7282.7350  303644.000000  98624.396751
    7285.2970  304254.000000  99600.399822
    7287.8770  305223.000000  100524.397275
    7290.4780  305548.000000  101160.400993
    7293.0970  305571.000000  101824.399638
    7295.7350  305599.000000  102761.398860
    7298.3920  305554.000000  104173.400415
    7301.0680  305441.000000  105556.402820
    7303.7640  304737.000000  106440.400580
    7306.4780  306215.000000  107664.398699
    7309.2110  305425.000000  107769.398934
    7311.9640  305631.000000  108118.396650
    7314.7360  305492.000000  108516.397619
    7317.5260  305331.000000  108927.403136
    7320.3360  305591.000000  109203.400900
    7323.1650  305413.000000  109129.402720
    7326.0130  305373.000000  108641.403249
    7328.8800  305099.000000  107921.403207
    7331.7660  305523.000000  107574.395803
    7334.6710  305074.000000  107065.400796
    7337.5960  305182.000000  107050.396612
    7340.5390  305300.000000  107344.404572
    7343.5010  305317.000000  108063.398833
    7346.4830  305293.000000  108860.404765
    7349.4830  305162.000000  109658.400419
    7352.5030  304986.000000  110368.401427
    7355.5420  304917.000000  110967.404876
    7358.6000  305066.000000  111339.394745
    7361.6760  305087.000000  111432.394743
    7364.7720  304731.000000  111450.396807
    7367.8870  304884.000000  111953.395870
    7371.0210  305111.000000  112828.400497
    7374.1750  304985.000000  113687.399818
    7377.3470  304910.000000  114453.399753
    7380.5380  304699.000000  115098.399930
    7383.7490  304984.000000  115784.399442
    7386.9780  304841.000000  116221.399594
    7390.2270  304467.000000  116493.399750
    7393.4940  304650.000000  116879.400320
    7396.7810  304697.000000  117567.400475
    7400.0870  304742.000000  118623.399767
    7403.4120  304816.000000  119830.399535
    7406.7550  304658.000000  120751.399918
    7410.1190  304605.000000  121245.400527
    7413.5000  303795.000000  121166.400527
    7416.9020  305304.000000  122094.399451
    7420.3220  304548.000000  122173.400378
    7423.7610  304397.000000  122540.399872
    7427.2200  304707.000000  123307.400562
    7430.6970  304458.000000  123839.400215
    7434.1940  304310.000000  124247.399934
    7437.7090  304338.000000  124520.399747
    7441.2440  304342.000000  124688.400494
    7444.7980  304576.000000  124938.399958
    7448.3710  304397.000000  125012.399763
    7451.9620  304464.000000  125002.399555
    7455.5740  304333.000000  125241.400213
    7459.2040  304131.000000  125885.400046
    7462.8530  304376.000000  126842.399783
    7466.5210  304297.000000  127434.399461
    7470.2080  304048.000000  127998.399979
    7473.9150  304975.000000  129331.400471
    7477.6400  305708.000000  130592.399453
    7481.3850  306082.000000  131540.400150
    7485.1480  305961.000000  132267.400234
    7488.9310  306201.000000  133023.399529
    7492.7330  306134.000000  133616.399537
    7496.5540  306039.000000  134171.399697
    7500.3940  305977.000000  134654.399959
    7504.2530  305156.000000  134834.400331
    7508.1310  306748.000000  136215.399627
    7512.0280  306054.000000  136604.399934
    7515.9440  305949.000000  137201.400285
    7519.8790  305906.000000  137852.399679
    7523.8340  305935.000000  138799.399416
    7527.8070  305891.000000  139820.399643
    7531.8000  305816.000000  140797.399474
    7535.8120  305895.000000  141389.399972
    7539.8420  305839.000000  141723.399861
    7543.8920  305840.000000  142191.400291
    7547.9610  305863.000000  142828.399943
    7552.0490  305740.000000  143459.399890
    7556.1560  305560.000000  144201.399298
    7560.2820  305668.000000  145053.399296
    7564.4270  305785.000000  145765.400087
    7568.5910  305684.000000  146091.399328
    7572.7740  305582.000000  146484.399544
    7576.9770  305523.000000  146958.399803
    7581.1980  305558.000000  147365.399485
    7585.4390  305647.000000  147771.399442
    7589.6980  305208.000000  148027.399944
    7593.9770  306038.000000  149251.400714
    7598.2750  305315.000000  149728.400650
    7602.5920  305573.000000  150911.400447
    7606.9280  305378.000000  151715.399418
    7611.2830  305425.000000  152788.400255
    7615.6570  305488.000000  153702.400417
    7620.0500  305297.000000  154525.399872
    7624.4620  305001.000000  155293.400688
    7628.8940  305246.000000  156370.399532
    7633.3440  305391.000000  157304.400173
    7637.8130  305277.000000  158101.400290
    7642.3020  305129.000000  158730.400385
    7646.8100  305185.000000  159571.399863
    7651.3360  305107.000000  160185.400057
    7655.8820  304968.000000  160597.400157
    7660.4470  303292.000000  160361.399957
    7665.0300  306701.000000  162885.399279
    7669.6340  304931.000000  162775.399187
    7674.2550  304917.000000  163805.400085
    7678.8960  304978.000000  164763.399576
    7683.5570  305007.000000  165569.400811
    7688.2360  304909.000000  166328.400683
    7692.9350  304867.000000  167210.399374
    7697.6520  304843.000000  168169.399204
    7702.3890  304732.000000  168997.400274
    7707.1440  304761.000000  169775.399289
    7711.9190  304780.000000  170587.399916
    7716.7120  304730.000000  171231.400092
    7721.5250  304752.000000  171930.399542
    7726.3570  304652.000000  172706.399764
    7731.2080  304949.000000  173670.399919
    7736.0780  301749.000000  172723.400850
    7740.9670  309843.000000  178023.399154
    7745.8750  306494.000000  176786.399144
    7750.8030  306086.000000  177554.399536
    7755.7500  306137.000000  178456.400089
    7760.7150  306150.000000  179480.399669
    7765.6990  306231.000000  180522.399878
    7770.7030  306178.000000  181586.399761
    7775.7260  305604.000000  182177.399744
    7780.7670  306396.000000  183769.400404
    7785.8280  306122.000000  184742.400553
    7790.9080  306044.000000  185782.399272
    7796.0070  305959.000000  186777.400482
    7801.1250  305944.000000  187680.400465
    7806.2620  305753.000000  188583.399453
    7811.4180  305897.000000  189695.399270
    7816.5940  305849.000000  190572.400238
    7821.7880  305834.000000  191458.399703
    7827.0010  305216.000000  191922.399810
    7832.2340  306347.000000  193559.400832
    7837.4850  305718.000000  194076.400475
    7842.7560  305672.000000  194980.400184
    7848.0460  305591.000000  195960.399725
    7853.3540  305721.000000  197142.400214
    7858.6830  305761.000000  198180.400799
    7864.0300  305543.000000  199089.400298
    7869.3960  305580.000000  200203.400074
    7874.7810  305561.000000  201189.399679
    7880.1850  305567.000000  202118.400579
    7885.6080  305548.000000  203311.400390
    7891.0510  305485.000000  204440.399409
    7896.5120  305410.000000  205458.399145
    7901.9920  305454.000000  206482.399112
    7907.4920  305471.000000  207515.400824
    7913.0110  305389.000000  208461.400332
    7918.5480  305311.000000  209491.400173
    7924.1050  305383.000000  210545.399938
    7929.6810  305224.000000  211626.399444
    7935.2760  305309.000000  212879.400070
    7940.8900  304801.000000  213654.399645
    7946.5230  305709.000000  215465.399845
    7952.1750  305185.000000  216279.399951
    7957.8470  305134.000000  217407.400357
    7963.5370  305037.000000  218439.400043
    7969.2470  305340.000000  219877.400338
