#XDI/1.1  GSE/1.0
# Column.1: energy eV
# Column.2: itrans
# Column.3: i0
# Scan.end_time: 2001-12-20 18:37:07
# Scan.start_time: 2001-12-20 18:33:25
# Element.symbol:  Fe
# Element.edge:  K
# Mono.d_spacing:  3.13555
# Mono.name: Si 111
# Sample.name: magnetite
# Sample.formula: Fe3O4
# Sample.prep: powder on tape, many layers
# Sample.temperature: room temperature
# Beamline.Name:  13-ID-C
# Beamline.xray_source:  undulator
# Beamline.collimation: none
# Beamline.focusing: no
# Beamline.Storage_Ring_Current: 98.808 mA
# Facility.name: APS
# Facility.energy: 7.00 GeV
# Facility.xray_source: APS undulator A
# Detector.I0: 10 cm N2
# Detector.I1: 10 cm Ar (?)
#-------------------------
#  energy  itrans  i0
    7061.982    187566.50    101621.50
    7067.016    178405.50     95930.50
    7072.014    177116.50     94894.50
    7076.999    179945.50     95915.50
    7081.990    180422.50     95712.50
    7087.011    180905.50     95668.50
    7091.975    181976.50     95741.50
    7097.010    184266.50     96418.50
    7102.010    185014.50     96309.50
    7106.974    185550.50     96260.50
    7107.509    186463.50     96596.50
    7108.023    187771.50     97269.50
    7108.495    188152.50     97466.50
    7109.030    188237.50     97543.50
    7109.523    187780.50     97297.50
    7109.995    188203.50     97506.50
    7110.509    187622.50     97228.50
    7111.023    187895.50     97497.50
    7111.517    186837.50     97025.50
    7112.010    186604.50     97202.50
    7112.525    186139.50     97350.50
    7112.997    185297.50     97225.50
    7113.512    185672.50     97260.50
    7114.026    185948.50     97123.50
    7114.499    186234.50     97138.50
    7115.014    186400.50     97154.50
    7115.529    186508.50     97222.50
    7116.022    186625.50     97190.50
    7116.517    186766.50     97392.50
    7117.032    186241.50     97269.50
    7117.526    185694.50     97215.50
    7117.999    185116.50     97287.50
    7118.514    184460.50     97364.50
    7119.030    182951.50     97174.50
    7119.503    181671.50     97259.50
    7119.997    180123.50     97188.50
    7120.535    178885.50     97402.50
    7121.029    177103.50     97185.50
    7121.523    175544.50     97028.50
    7121.997    174687.50     97163.50
    7122.535    173186.50     97185.50
    7123.029    171486.50     97339.50
    7123.502    170057.50     97297.50
    7124.019    168214.50     97240.50
    7124.536    166570.50     97201.50
    7125.009    165769.50     97274.50
    7125.526    164917.50     97265.50
    7126.021    164243.50     97376.50
    7126.495    162752.50     97110.50
    7127.012    162007.50     97267.50
    7127.529    160776.50     97233.50
    7128.003    159138.50     97277.50
    7128.520    157710.50     97171.50
    7129.016    157078.50     97301.50
    7129.533    156524.50     97363.50
    7130.007    156095.50     97253.50
    7130.503    156016.50     97247.50
    7131.021    157077.50     97509.50
    7131.495    156371.50     96953.50
    7132.013    157128.50     97002.50
    7132.531    158252.50     97236.50
    7133.027    158467.50     96871.50
    7133.501    159281.50     97205.50
    7133.998    160732.50     97292.50
    7134.495    160871.50     97075.50
    7135.034    161214.50     97040.50
    7135.509    161759.50     97305.50
    7136.006    162411.50     97377.50
    7136.502    162602.50     97381.50
    7137.000    163304.50     97660.50
    7139.009    163755.50     97140.50
    7140.998    164780.50     97105.50
    7142.989    164970.50     96988.50
    7144.980    165377.50     97101.50
    7146.973    167052.50     97202.50
    7148.988    169092.50     97388.50
    7151.005    170375.50     97217.50
    7153.001    171054.50     97010.50
    7155.021    171645.50     96981.50
    7156.997    172246.50     96830.50
    7158.997    171773.50     96267.50
    7160.998    174205.50     97373.50
    7163.000    174548.50     97374.50
    7165.003    173964.50     97086.50
    7167.007    174106.50     97081.50
    7169.013    173958.50     97286.50
    7170.998    173362.50     97014.50
    7173.005    172665.50     96799.50
    7175.014    172714.50     96919.50
    7177.002    172667.50     96735.50
    7179.014    172610.50     96985.50
    7180.982    172539.50     96882.50
    7182.996    172476.50     96802.50
    7184.989    173208.50     96961.50
    7187.005    173410.50     97060.50
    7189.000    173658.50     96937.50
    7190.997    174258.50     96900.50
    7192.994    175469.50     97069.50
    7195.037    176065.50     96947.50
    7197.015    176317.50     96753.50
    7199.016    177136.50     96791.50
    7200.996    178485.50     97135.50
    7202.977    178917.50     97116.50
    7205.004    179421.50     96979.50
    7207.031    179957.50     97063.50
    7208.994    179450.50     96712.50
    7211.002    179847.50     96730.50
    7212.989    180925.50     97043.50
    7215.000    181012.50     97069.50
    7216.989    181048.50     97105.50
    7219.001    181332.50     97127.50
    7221.015    181608.50     97112.50
    7223.008    181571.50     96903.50
    7224.979    181786.50     97009.50
    7226.997    181962.50     96961.50
    7229.015    182041.50     96814.50
    7231.013    182453.50     96791.50
    7233.011    183547.50     97182.50
    7235.011    184092.50     97014.50
    7237.012    184497.50     96993.50
    7239.036    184928.50     96869.50
    7241.017    185766.50     96925.50
    7243.021    185962.50     96755.50
    7245.004    187218.50     97133.50
    7247.011    186751.50     96734.50
