#XDI/1.1  GSE/1.0
# Column.1: energy eV
# Column.2: itrans
# Column.3: i0
# Scan.end_time: 2001-12-20 18:53:48
# Scan.start_time: 2001-12-20 18:50:07
# Element.symbol:  Fe
# Element.edge:  K
# Mono.d_spacing:  3.13555
# Mono.name: Si 111
# Sample.name: siderite
# Sample.formula: FeCO3
# Sample.prep: powder on tape, many layers
# Sample.temperature: room temperature
# Beamline.Name:  13-ID-C
# Beamline.xray_source:  undulator
# Beamline.collimation: none
# Beamline.focusing: no
# Beamline.Storage_Ring_Current:  97.984 mA
# Facility.name: APS
# Facility.energy: 7.00 GeV
# Facility.xray_source: APS undulator A
# Detector.I0: 10 cm N2
# Detector.I1: 10 cm Ar (?)
#-------------------------
#  energy  itrans  i0
    7061.982    173688.50    100163.50
    7067.016    166551.50     95320.50
    7071.993    164839.50     94145.50
    7076.999    168071.50     95523.50
    7081.990    168874.50     95442.50
    7086.989    169149.50     95486.50
    7091.996    169586.50     94815.50
    7096.988    171356.50     95304.50
    7102.010    172230.50     95448.50
    7106.974    173342.50     95633.50
    7107.509    174470.50     96242.50
    7108.023    175028.50     96561.50
    7108.495    174972.50     96775.50
    7109.009    174697.50     96620.50
    7109.523    174774.50     96553.50
    7109.995    174758.50     96594.50
    7110.509    173712.50     96371.50
    7111.023    173598.50     96387.50
    7111.517    173620.50     96599.50
    7112.010    173528.50     96481.50
    7112.525    173590.50     96612.50
    7112.997    173430.50     96395.50
    7113.512    172991.50     96176.50
    7114.026    172946.50     96232.50
    7114.520    173060.50     96410.50
    7115.014    172979.50     96392.50
    7115.529    173306.50     96755.50
    7116.022    172364.50     96734.50
    7116.517    170815.50     96709.50
    7117.010    168739.50     96659.50
    7117.526    165952.50     96571.50
    7117.999    162530.50     96448.50
    7118.514    159752.50     96571.50
    7119.030    156876.50     96471.50
    7119.524    153761.50     96472.50
    7119.997    149086.50     96635.50
    7120.535    143589.50     96504.50
    7121.029    137890.50     96634.50
    7121.523    131554.50     96639.50
    7121.997    126080.50     96812.50
    7122.535    120751.50     96470.50
    7123.029    116500.50     96340.50
    7123.502    115206.50     96187.50
    7123.998    115551.50     96329.50
    7124.536    115326.50     96375.50
    7125.009    115769.50     96511.50
    7125.504    116931.50     96738.50
    7126.021    117339.50     96473.50
    7126.495    118646.50     96671.50
    7127.012    119508.50     96373.50
    7127.529    122547.50     96664.50
    7128.003    125408.50     96839.50
    7128.499    127046.50     96217.50
    7129.016    128728.50     96513.50
    7129.533    130630.50     96544.50
    7130.029    131211.50     96487.50
    7130.525    132277.50     96463.50
    7131.021    131287.50     96316.50
    7131.517    131362.50     96174.50
    7132.013    130571.50     96324.50
    7132.531    128705.50     96298.50
    7133.027    128343.50     96532.50
    7133.501    127033.50     96501.50
    7133.998    126246.50     96336.50
    7134.495    126136.50     96362.50
    7135.013    126213.50     96402.50
    7135.509    126285.50     96528.50
    7136.027    126511.50     96539.50
    7136.502    126772.50     96722.50
    7137.000    126226.50     96527.50
    7139.009    130248.50     96162.50
    7140.998    135078.50     95991.50
    7143.010    139323.50     96149.50
    7145.002    142876.50     96382.50
    7146.995    145621.50     96508.50
    7149.010    145409.50     96332.50
    7151.027    145244.50     96418.50
    7153.001    144647.50     96370.50
    7155.021    142669.50     96161.50
    7157.019    140878.50     96137.50
    7158.997    137410.50     95638.50
    7160.998    138452.50     96788.50
    7163.000    138246.50     96728.50
    7164.981    137149.50     96462.50
    7167.007    136300.50     96236.50
    7168.991    135568.50     96063.50
    7170.976    135555.50     96013.50
    7173.005    136980.50     96262.50
    7175.014    137975.50     95982.50
    7176.980    139313.50     96308.50
    7178.992    140782.50     96255.50
    7181.004    141173.50     96171.50
    7182.996    140622.50     95821.50
    7184.989    141361.50     96287.50
    7187.005    141993.50     96173.50
    7188.979    142493.50     96331.50
    7190.997    142837.50     96242.50
    7192.972    143530.50     96293.50
    7195.015    144432.50     95965.50
    7197.015    144850.50     95760.50
    7198.994    145830.50     95966.50
    7200.996    146615.50     96105.50
    7202.999    147271.50     96415.50
    7204.981    147413.50     96547.50
    7207.009    147330.50     96233.50
    7208.972    147610.50     96201.50
    7211.002    147940.50     96146.50
    7212.989    148643.50     96376.50
    7214.977    148271.50     96076.50
    7217.011    148734.50     96378.50
    7218.979    148335.50     96082.50
    7221.015    148235.50     96100.50
    7223.008    148157.50     95913.50
    7224.979    148808.50     95977.50
    7226.997    148768.50     95960.50
    7229.015    149040.50     96062.50
    7231.013    148776.50     96057.50
    7233.011    149376.50     96084.50
    7235.033    149584.50     96399.50
    7237.012    149801.50     96145.50
    7239.014    149701.50     96112.50
    7241.017    150479.50     96383.50
    7242.999    150430.50     96099.50
    7245.004    151121.50     96438.50
    7247.011    151035.50     96168.50
