#XDI/1.1  GSE/1.0
# Column.1: energy eV
# Column.2: itrans
# Column.3: i0
# Scan.end_time: 2006-12-17 10:21:36
# Scan.start_time: 2006-12-17 10:03:09
# Element.symbol:  Zn
# Element.edge:  K
# Mono.d_spacing:  3.13555
# Mono.name: Si 111
# Sample.name: smithsonite
# Sample.formula: ZnCO3
# Sample.prep: powder on tape, many layers
# Sample.temperature: room temperature
# Beamline.Name:  13-BM-D
# Beamline.xray_source:  bending magnet
# Beamline.collimation: none
# Beamline.focusing: no
# Beamline.harmonic_rejection: Rh-coated mirror, detuned
# Beamline.Storage_Ring_Current: 100.209 mA
# Facility.name: APS
# Facility.energy: 7.00 GeV
# Facility.xray_source: APS bending magnet
# Detector.I0: 10 nA/V 10 cm N2
# Detector.I1: 2 nA/V 10 cm Ar (?)
# ScanParameters.E0: 9659.00
# ScanParameters.Legend: Start       Stop       Step       Npts       Time   Kspace?
# ScanParameters.Region1: -200.00    -10.000     5.0000     39.000     2.0000   0
# ScanParameters.Region2: -10.000     25.000    0.25000     141.00     2.0000   0
# ScanParameters.Region3: 2.5616     12.000   0.039993     237.00     2.0000   1
#-------------------------
#  energy  itrans  i0
    9459.017    315818.00    290696.00
    9463.885    312155.00    286718.00
    9468.992    309672.00    283882.00
    9474.024    308815.00    282433.00
    9479.026    308377.00    281372.00
    9483.994    308314.00    280665.00
    9489.005    308420.00    280125.00
    9494.022    308710.00    279758.00
    9499.006    309128.00    279542.00
    9503.995    309814.00    279436.00
    9508.988    310456.00    279393.00
    9513.989    311069.00    279271.00
    9518.993    311970.00    279396.00
    9524.005    312402.00    279249.00
    9529.059    312970.00    279141.00
    9534.001    313502.00    278971.00
    9538.988    314068.00    278861.00
    9544.021    314822.00    278861.00
    9549.019    315500.00    278811.00
    9554.021    316132.00    278775.00
    9558.990    316705.00    278620.00
    9564.006    317361.00    278615.00
    9569.024    317808.00    278408.00
    9574.010    316631.00    276806.00
    9579.000    319086.00    278370.00
    9583.996    321399.00    279783.00
    9588.997    321862.00    279555.00
    9594.004    322292.00    279394.00
    9599.016    322931.00    279368.00
    9603.993    323372.00    279280.00
    9609.016    324033.00    279393.00
    9614.004    324607.00    279405.00
    9618.996    325105.00    279461.00
    9623.995    325493.00    279440.00
    9628.999    326042.00    279736.00
    9634.009    324490.00    278518.00
    9639.023    325895.00    280024.00
    9644.002    324765.00    280034.00
    9649.027    321703.00    279877.00
    9649.269    321862.00    280209.00
    9649.510    322255.00    280707.00
    9649.752    322288.00    280978.00
    9649.993    322244.00    281088.00
    9650.275    321913.00    281072.00
    9650.517    321693.00    281080.00
    9650.757    321344.00    281050.00
    9651.040    320978.00    281054.00
    9651.280    320777.00    281029.00
    9651.521    320316.00    281013.00
    9651.765    319996.00    281010.00
    9652.006    319636.00    280971.00
    9652.246    319108.00    280899.00
    9652.529    318554.00    280793.00
    9652.810    317935.00    280675.00
    9653.051    317489.00    280689.00
    9653.294    317243.00    280845.00
    9653.495    316778.00    280878.00
    9653.776    316073.00    280788.00
    9654.059    315512.00    280754.00
    9654.300    314937.00    280738.00
    9654.501    314370.00    280856.00
    9654.742    313690.00    280902.00
    9655.024    312802.00    280862.00
    9655.266    311774.00    280748.00
    9655.549    310882.00    280695.00
    9655.750    309994.00    280783.00
    9655.991    309232.00    280939.00
    9656.274    308028.00    280926.00
    9656.516    307093.00    281024.00
    9656.757    305828.00    280953.00
    9656.998    304699.00    281002.00
    9657.241    303291.00    281023.00
    9657.562    301505.00    281067.00
    9657.764    299669.00    281061.00
    9658.046    297658.00    281067.00
    9658.248    295282.00    280974.00
    9658.530    292884.00    280999.00
    9658.771    289603.00    281086.00
    9659.054    286676.00    281138.00
    9659.296    283093.00    281171.00
    9659.538    278992.00    281246.00
    9659.779    274270.00    281345.00
    9660.021    267248.00    281153.00
    9660.264    260320.00    281085.00
    9660.545    253126.00    280969.00
    9660.788    244344.00    280955.00
    9660.989    234579.00    280958.00
    9661.271    222063.00    281031.00
    9661.554    210463.00    280983.00
    9661.756    197655.00    280966.00
    9662.037    184532.00    281020.00
    9662.278    170588.00    280981.00
    9662.521    154998.00    280924.00
    9662.804    141984.00    280923.00
    9663.047    130146.00    280877.00
    9663.288    118913.00    280819.00
    9663.530    108995.00    280630.00
    9663.771     97540.00    280433.00
    9664.015     88751.00    280606.00
    9664.257     79493.00    280515.00
    9664.538     70580.00    280502.00
    9664.781     61482.00    280700.00
    9665.063     51378.00    280793.00
    9665.265     43771.00    280761.00
    9665.508     36860.00    280738.00
    9665.790     31535.00    280711.00
    9666.031     27543.00    280793.00
    9666.274     24846.00    280890.00
    9666.517     23890.00    280996.00
    9666.799     23929.00    281217.00
    9667.042     24612.00    281354.00
    9667.283     25711.00    281337.00
    9667.525     27405.00    281243.00
    9667.769     29068.00    281284.00
    9668.011     30972.00    281388.00
    9668.293     33023.00    281115.00
    9668.536     35420.00    280997.00
    9668.778     38435.00    280961.00
    9669.060     41317.00    280999.00
    9669.304     44483.00    280946.00
    9669.545     47737.00    280891.00
    9669.787     51220.00    280845.00
    9669.989     54672.00    280935.00
    9670.272     58908.00    280860.00
    9670.515     62678.00    280862.00
    9670.757     66542.00    280850.00
    9671.040     70590.00    280805.00
    9671.242     74572.00    280723.00
    9671.526     79002.00    280554.00
    9671.769     82722.00    280504.00
    9672.010     85842.00    280732.00
    9672.252     88551.00    280702.00
    9672.536     90768.00    280589.00
    9672.738     92647.00    280589.00
    9673.021     94447.00    280641.00
    9673.264     95784.00    280811.00
    9673.546     96797.00    280848.00
    9673.790     97710.00    280901.00
    9674.032     98330.00    280868.00
    9674.274     98598.00    280853.00
    9674.558     98381.00    280790.00
    9674.760     97745.00    280801.00
    9675.042     96556.00    280763.00
    9675.244     94860.00    280607.00
    9675.528     92250.00    280515.00
    9675.771     89590.00    280645.00
    9676.055     86585.00    280787.00
    9676.297     83348.00    280723.00
    9676.539     80025.00    280649.00
    9676.781     76671.00    280538.00
    9677.025     73505.00    280618.00
    9677.268     71214.00    280788.00
    9677.552     69440.00    280872.00
    9677.794     68297.00    280906.00
    9678.036     67678.00    280884.00
    9678.279     67669.00    280932.00
    9678.522     68264.00    280941.00
    9678.806     69159.00    281122.00
    9679.048     70444.00    281197.00
    9679.292     71852.00    281216.00
    9679.534     73456.00    281019.00
    9679.776     75276.00    280958.00
    9680.021     76706.00    280918.00
    9680.304     78121.00    280904.00
    9680.546     79445.00    280894.00
    9680.748     80714.00    280790.00
    9681.032     82109.00    280755.00
    9681.275     83855.00    280802.00
    9681.520     85565.00    280798.00
    9681.762     87489.00    280835.00
    9682.044     89812.00    280851.00
    9682.288     92295.00    280788.00
    9682.491     95128.00    280802.00
    9682.773     98557.00    280755.00
    9683.059    101601.00    280749.00
    9683.301    104594.00    280815.00
    9683.543    107592.00    280773.00
    9683.788    110440.00    280631.00
    9683.990    113072.00    280546.00
    9684.800    120089.00    280293.00
    9685.610    124137.00    280460.00
    9686.421    126592.00    280363.00
    9687.232    129388.00    280189.00
    9688.084    133026.00    280474.00
    9688.896    135442.00    280400.00
    9689.787    136431.00    280356.00
    9690.640    135724.00    280394.00
    9691.531    133879.00    280385.00
    9692.425    131038.00    280329.00
    9693.318    127532.00    280514.00
    9694.253    122970.00    280363.00
    9695.187    118702.00    280375.00
    9696.121    114621.00    280556.00
    9697.096    110855.00    280539.00
    9698.071    106835.00    280341.00
    9699.047    102166.00    280425.00
    9700.021     97418.00    280526.00
    9701.039     92054.00    280379.00
    9702.056     87164.00    280421.00
    9703.072     83277.00    280483.00
    9704.131     80664.00    280449.00
    9705.189     79780.00    280381.00
    9706.247     79683.00    280552.00
    9707.307     79392.00    280466.00
    9708.404     78480.00    280403.00
    9709.545     76961.00    279607.00
    9710.605     75800.00    279577.00
    9711.787     75650.00    281527.00
    9712.929     75557.00    280972.00
    9714.070     76201.00    280813.00
    9715.212     77543.00    280659.00
    9716.395     79431.00    280593.00
    9717.579     81741.00    280306.00
    9718.803     84088.00    280235.00
    9719.986     86185.00    280160.00
    9721.253     87689.00    280120.00
    9722.478     88542.00    280210.00
    9723.704     88945.00    280093.00
    9724.930     89105.00    280067.00
    9726.237     89261.00    279976.00
    9727.546     89454.00    279451.00
    9728.855     89203.00    277037.00
    9730.124     90796.00    280791.00
    9731.475     91693.00    281959.00
    9732.783     92024.00    281148.00
    9734.176     92845.00    280909.00
    9735.527     93830.00    280686.00
    9736.880     94957.00    280527.00
    9738.231     96077.00    280483.00
    9739.584     97397.00    280548.00
    9741.021     98777.00    280663.00
    9742.455     99904.00    280427.00
    9743.933    100452.00    280393.00
    9745.368    100367.00    280319.00
    9746.806     99881.00    280425.00
    9748.283     99096.00    280554.00
    9749.804     98120.00    280348.00
    9751.242     97560.00    280305.00
    9752.804     97424.00    280372.00
    9754.244     97411.00    280064.00
    9755.807     97545.00    280382.00
    9757.370     97182.00    280160.00
    9758.893     96534.00    280184.00
    9760.457     95538.00    280094.00
    9762.021     94606.00    280083.00
    9763.671     93923.00    279877.00
    9765.277     93726.00    279923.00
    9766.679     93747.00    279894.00
    9768.453     93757.00    279810.00
    9770.103     93459.00    279554.00
    9771.754     93019.00    279469.00
    9773.487     91997.00    278230.00
    9775.057     90314.00    274501.00
    9776.832     93088.00    283533.00
    9778.527     92863.00    282334.00
    9780.223     92974.00    281609.00
    9781.959     93034.00    281030.00
    9783.654     92886.00    280581.00
    9785.477     92408.00    279500.00
    9787.174     92755.00    280928.00
    9788.995     92796.00    280895.00
    9790.776     92739.00    280774.00
    9792.561     92608.00    280691.00
    9794.177     92446.00    280524.00
    9796.208     92182.00    280620.00
    9797.994     92039.00    280466.00
    9799.901     92131.00    280155.00
    9801.771     92497.00    279550.00
    9803.641     93820.00    280447.00
    9805.469     95081.00    280461.00
    9807.466     96396.00    280287.00
    9809.254     97538.00    280105.00
    9811.250     98532.00    280081.00
    9813.124     99123.00    280024.00
    9815.122     99610.00    280046.00
    9817.039     99810.00    279894.00
    9819.039     99931.00    279895.00
    9820.957     99752.00    279876.00
    9822.958     99390.00    279926.00
    9824.963     98560.00    279720.00
    9827.007     97673.00    279734.00
    9829.011     96629.00    278653.00
    9831.060     96922.00    280050.00
    9833.149     97160.00    279936.00
    9835.239     97748.00    279837.00
    9837.290     98283.00    279876.00
    9839.340     98702.00    279850.00
    9841.476     98894.00    279855.00
    9843.570     99051.00    279790.00
    9845.666     99206.00    279590.00
    9847.846     98608.00    276825.00
    9849.984     99764.00    279263.00
    9852.208    101019.00    281803.00
    9854.391    100933.00    280980.00
    9856.575    100795.00    280595.00
    9858.761    100724.00    280299.00
    9860.947    100703.00    280168.00
    9863.176    100620.00    280081.00
    9865.405    100575.00    280312.00
    9867.637    100280.00    280074.00
    9869.954    100131.00    280046.00
    9872.187    100067.00    280024.00
    9874.505    100140.00    280017.00
    9876.825    100267.00    279954.00
    9879.062    100026.00    279023.00
    9881.384    100557.00    280244.00
    9883.749    100477.00    280251.00
    9886.073    100176.00    279966.00
    9888.440    100039.00    280200.00
    9890.852     99862.00    279848.00
    9893.179     99914.00    279279.00
    9895.634    100630.00    280226.00
    9898.049    101035.00    280153.00
    9900.464    101435.00    279942.00
    9902.882    101920.00    279838.00
    9905.300    102652.00    279610.00
    9907.761    103482.00    279762.00
    9910.225    104155.00    279525.00
    9912.688    104751.00    279468.00
    9915.239    105197.00    279518.00
    9917.750    105413.00    279462.00
    9920.260    105120.00    278391.00
    9922.771    105832.00    280181.00
    9925.286    105891.00    280154.00
    9927.842    105898.00    279947.00
    9930.400    105979.00    279963.00
    9932.961    105976.00    279828.00
    9935.564    106168.00    279933.00
    9938.214    106419.00    279880.00
    9940.776    106700.00    279999.00
    9943.471    106864.00    279999.00
    9946.038    106865.00    280000.00
    9948.734    106825.00    279889.00
    9951.391    106856.00    279911.00
    9954.047    106830.00    279795.00
    9956.791    106878.00    279767.00
    9959.450    107019.00    279802.00
    9962.153    107116.00    279734.00
    9964.860    107305.00    279729.00
    9967.653    107515.00    279562.00
    9970.405    107873.00    279522.00
    9973.157    108335.00    279467.00
    9975.912    108723.00    279141.00
    9978.712    109416.00    279432.00
    9981.470    109737.00    279176.00
    9984.272    108556.00    275476.00
    9987.120    110971.00    281240.00
    9989.926    110898.00    281067.00
    9992.776    110802.00    280837.00
    9995.628    110605.00    280115.00
    9998.524    110656.00    280008.00
   10001.380    110541.00    279365.00
   10004.280    110662.00    279333.00
   10007.230    111304.00    280510.00
   10009.960    111287.00    280093.00
   10012.860    111370.00    279911.00
   10016.070    111476.00    279646.00
   10018.770    111767.00    279730.00
   10021.940    112114.00    279613.00
   10024.900    112494.00    279566.00
   10027.940    112914.00    279565.00
   10030.940    113282.00    279551.00
   10033.900    113654.00    279566.00
   10037.000    114021.00    279579.00
   10040.050    114419.00    279591.00
   10043.060    114701.00    279696.00
   10046.160    114893.00    279535.00
   10049.180    115019.00    279449.00
   10052.280    115260.00    279626.00
   10055.390    115547.00    279666.00
   10058.500    115801.00    279519.00
   10061.650    116111.00    279449.00
   10064.800    116433.00    279535.00
   10067.960    116682.00    279350.00
   10071.120    116974.00    279543.00
   10074.330    117141.00    279575.00
   10077.450    117285.00    279608.00
   10080.660    117489.00    279523.00
   10083.870    117698.00    279546.00
   10087.080    117901.00    279468.00
   10090.300    118178.00    279447.00
   10093.560    118431.00    279479.00
   10096.820    118646.00    279395.00
   10100.090    118878.00    279273.00
   10103.450    119120.00    279229.00
   10106.760    119342.00    278910.00
   10110.040    119827.00    279209.00
   10113.350    120107.00    279155.00
   10116.680    120245.00    278957.00
   10119.960    120488.00    279097.00
   10123.330    120710.00    279002.00
   10126.700    120869.00    278952.00
   10130.160    121059.00    279034.00
   10133.500    121331.00    279052.00
   10136.960    121665.00    279203.00
   10140.300    121986.00    279293.00
   10143.780    122237.00    279244.00
   10147.250    122668.00    279424.00
   10150.640    123087.00    279570.00
   10154.120    123458.00    279699.00
   10157.600    123826.00    279816.00
   10161.130    124029.00    279668.00
   10164.620    124392.00    279826.00
   10168.110    124655.00    279721.00
   10171.650    124920.00    279681.00
   10175.240    125220.00    279512.00
   10178.730    125498.00    279528.00
   10182.370    125820.00    279462.00
   10185.870    125905.00    278972.00
   10189.510    126398.00    279422.00
   10193.060    126634.00    279310.00
   10196.710    126836.00    279118.00
   10200.310    126694.00    278092.00
   10203.960    127200.00    278553.00
   10207.620    128351.00    280276.00
