#XDI/1.1  GSE/1.0
# Column.1: energy eV
# Column.2: itrans
# Column.3: i0
# Scan.end_time: 2006-12-17 06:55:25
# Scan.start_time: 2006-12-17 06:37:01
# Element.symbol:  Zn
# Element.edge:  K
# Mono.d_spacing:  3.13555
# Mono.name: Si 111
# Sample.name: sphalerite
# Sample.formula: ZnS
# Sample.prep: powder on tape, many layers
# Sample.temperature: room temperature
# Beamline.Name:  13-BM-D
# Beamline.xray_source:  bending magnet
# Beamline.collimation: none
# Beamline.focusing: no
# Beamline.harmonic_rejection: Rh-coated mirror, detuned
# Beamline.Storage_Ring_Current: 99.903 mA
# Facility.name: APS
# Facility.energy: 7.00 GeV
# Facility.xray_source: APS bending magnet
# Detector.I0: 10 nA/V 10 cm N2
# Detector.I1: 2 nA/V 10 cm Ar (?)
# ScanParameters.E0: 9659.00
# ScanParameters.Legend: Start       Stop       Step       Npts       Time   Kspace?
# ScanParameters.Region1: -200.00    -10.000     5.0000     39.000     2.0000   0
# ScanParameters.Region2: -10.000     25.000    0.25000     141.00     2.0000   0
# ScanParameters.Region3: 2.5616     12.000   0.039993     237.00     2.0000   1
#-------------------------
#  energy  itrans  i0
    9459.017    209814.00    267014.00
    9463.963    209187.00    265120.00
    9468.952    208495.00    263662.00
    9473.986    208309.00    262810.00
    9479.026    208491.00    262432.00
    9483.994    208623.00    261921.00
    9489.005    209132.00    261811.00
    9494.022    209556.00    261620.00
    9499.006    210169.00    261672.00
    9503.995    210718.00    261593.00
    9508.988    211363.00    261653.00
    9513.989    212158.00    261761.00
    9518.993    212818.00    261833.00
    9524.005    213074.00    261570.00
    9529.020    213735.00    261675.00
    9534.001    214440.00    261681.00
    9538.988    214872.00    261523.00
    9544.021    215625.00    261584.00
    9549.019    216180.00    261598.00
    9554.021    216812.00    261635.00
    9558.990    217191.00    261486.00
    9564.006    217765.00    261486.00
    9569.024    218181.00    261326.00
    9574.010    217345.00    259679.00
    9579.000    219498.00    261567.00
    9583.996    220667.00    262400.00
    9588.997    220893.00    262091.00
    9594.004    221429.00    262052.00
    9599.016    221789.00    261805.00
    9603.993    221971.00    261660.00
    9609.016    222349.00    261645.00
    9614.004    222736.00    261641.00
    9618.996    223046.00    261683.00
    9623.995    223198.00    261661.00
    9628.999    223421.00    261873.00
    9634.009    222515.00    260987.00
    9639.023    222848.00    262113.00
    9644.002    221239.00    261971.00
    9649.027    217736.00    261978.00
    9649.269    217678.00    262348.00
    9649.510    217793.00    262729.00
    9649.752    217648.00    262935.00
    9649.993    217506.00    263122.00
    9650.275    217353.00    263289.00
    9650.557    216981.00    263326.00
    9650.797    216695.00    263392.00
    9650.998    216330.00    263447.00
    9651.280    216001.00    263425.00
    9651.562    215464.00    263407.00
    9651.765    215083.00    263451.00
    9652.006    214499.00    263420.00
    9652.246    214031.00    263463.00
    9652.487    213422.00    263390.00
    9652.771    212748.00    263382.00
    9653.011    212135.00    263427.00
    9653.252    211433.00    263374.00
    9653.535    210700.00    263351.00
    9653.776    209832.00    263384.00
    9654.059    208924.00    263316.00
    9654.260    207916.00    263200.00
    9654.541    206846.00    263031.00
    9654.742    205700.00    263038.00
    9655.064    204371.00    263149.00
    9655.266    203050.00    263129.00
    9655.507    201564.00    263015.00
    9655.750    200114.00    263042.00
    9655.991    198747.00    263321.00
    9656.274    196896.00    263365.00
    9656.556    195089.00    263381.00
    9656.757    193064.00    263409.00
    9656.998    190797.00    263450.00
    9657.241    188271.00    263529.00
    9657.562    184847.00    263665.00
    9657.805    181325.00    263790.00
    9658.046    177082.00    263611.00
    9658.248    172614.00    263541.00
    9658.489    167379.00    263593.00
    9658.771    160296.00    263590.00
    9659.054    153304.00    263495.00
    9659.296    145176.00    263450.00
    9659.498    135716.00    263255.00
    9659.739    125155.00    263091.00
    9660.021    110471.00    262929.00
    9660.304     96930.00    263068.00
    9660.545     83179.00    262747.00
    9660.788     69756.00    262856.00
    9661.029     57585.00    262668.00
    9661.271     46051.00    262841.00
    9661.554     38366.00    262690.00
    9661.796     33280.00    262927.00
    9662.037     29646.00    262917.00
    9662.238     27281.00    262945.00
    9662.521     25554.00    263247.00
    9662.804     24328.00    263338.00
    9663.047     23171.00    263402.00
    9663.288     21891.00    263407.00
    9663.490     20585.00    263441.00
    9663.771     19250.00    263481.00
    9664.015     18405.00    263647.00
    9664.297     17848.00    263778.00
    9664.498     17677.00    263497.00
    9664.781     17993.00    263434.00
    9665.023     19028.00    263457.00
    9665.307     20398.00    263441.00
    9665.548     22268.00    263395.00
    9665.790     24487.00    263301.00
    9665.991     26870.00    263260.00
    9666.314     29628.00    263224.00
    9666.557     31733.00    263227.00
    9666.759     33519.00    263186.00
    9667.002     34865.00    263221.00
    9667.283     35788.00    263222.00
    9667.525     36242.00    263179.00
    9667.769     36150.00    263064.00
    9668.051     35681.00    262855.00
    9668.253     35038.00    262989.00
    9668.536     34265.00    262944.00
    9668.778     33502.00    262730.00
    9669.020     33206.00    262954.00
    9669.264     33130.00    262833.00
    9669.545     33363.00    262876.00
    9669.747     33804.00    263140.00
    9670.031     34232.00    263128.00
    9670.272     34637.00    263096.00
    9670.555     34792.00    263067.00
    9670.757     34696.00    263060.00
    9671.000     34406.00    263222.00
    9671.242     33868.00    263253.00
    9671.526     33183.00    263297.00
    9671.809     32616.00    263366.00
    9672.010     32068.00    263436.00
    9672.294     31661.00    263558.00
    9672.496     31301.00    263648.00
    9672.738     31013.00    263447.00
    9673.062     30785.00    263337.00
    9673.264     30712.00    263314.00
    9673.506     30695.00    263375.00
    9673.790     30799.00    263432.00
    9673.992     30925.00    263435.00
    9674.274     31207.00    263500.00
    9674.517     31456.00    263566.00
    9674.800     31642.00    263429.00
    9675.002     31866.00    263343.00
    9675.285     32016.00    263298.00
    9675.528     32168.00    263261.00
    9675.771     32263.00    263304.00
    9676.055     32295.00    263315.00
    9676.297     32308.00    263313.00
    9676.539     32319.00    263364.00
    9676.781     32340.00    263361.00
    9677.025     32399.00    263395.00
    9677.308     32541.00    263478.00
    9677.552     32690.00    263408.00
    9677.754     32898.00    263340.00
    9678.036     33149.00    263344.00
    9678.279     33468.00    263229.00
    9678.563     33905.00    263256.00
    9678.806     34321.00    263225.00
    9679.048     34765.00    263187.00
    9679.292     35247.00    263227.00
    9679.534     35721.00    263239.00
    9679.776     36265.00    263235.00
    9680.021     36640.00    263206.00
    9680.264     36982.00    263142.00
    9680.546     37272.00    263110.00
    9680.790     37530.00    263068.00
    9681.032     37701.00    263003.00
    9681.315     37851.00    263010.00
    9681.520     37967.00    263101.00
    9681.802     38048.00    263190.00
    9682.044     38010.00    263191.00
    9682.288     37934.00    263243.00
    9682.531     37826.00    263220.00
    9682.773     37633.00    263256.00
    9683.059     37451.00    263210.00
    9683.301     37249.00    263227.00
    9683.543     36983.00    263200.00
    9683.746     36736.00    263188.00
    9683.990     36502.00    263161.00
    9684.800     35723.00    263034.00
    9685.610     35123.00    262959.00
    9686.421     34514.00    262803.00
    9687.232     34009.00    262901.00
    9688.084     33732.00    263012.00
    9688.896     33836.00    263029.00
    9689.787     34407.00    263027.00
    9690.640     35403.00    263072.00
    9691.531     36760.00    263030.00
    9692.425     38347.00    262947.00
    9693.318     39905.00    263069.00
    9694.253     40940.00    262999.00
    9695.187     41490.00    263117.00
    9696.121     41839.00    263043.00
    9697.096     42230.00    262936.00
    9698.071     42660.00    262800.00
    9699.047     42928.00    262964.00
    9700.021     42898.00    263015.00
    9701.039     42622.00    262910.00
    9702.056     42189.00    262756.00
    9703.072     41582.00    262743.00
    9704.131     40675.00    262803.00
    9705.189     39586.00    262596.00
    9706.247     38365.00    262748.00
    9707.347     37003.00    262506.00
    9708.404     36026.00    262534.00
    9709.587     35372.00    261557.00
    9710.646     35401.00    261924.00
    9711.787     35768.00    263543.00
    9712.929     35826.00    263125.00
    9714.070     35794.00    262753.00
    9715.212     35643.00    262882.00
    9716.395     35141.00    262667.00
    9717.537     34470.00    262569.00
    9718.803     33554.00    262490.00
    9720.028     32709.00    262544.00
    9721.253     32128.00    262558.00
    9722.478     31705.00    262626.00
    9723.704     31466.00    262643.00
    9724.930     31345.00    262579.00
    9726.237     31325.00    262487.00
    9727.546     31506.00    261988.00
    9728.855     31753.00    259895.00
    9730.124     32887.00    263950.00
    9731.433     33666.00    264345.00
    9732.825     34299.00    263847.00
    9734.176     34941.00    263453.00
    9735.527     35496.00    263182.00
    9736.880     36094.00    262986.00
    9738.231     36653.00    262944.00
    9739.625     37099.00    262915.00
    9741.021     37422.00    262695.00
    9742.496     37887.00    262784.00
    9743.933     38348.00    262731.00
    9745.368     38831.00    262433.00
    9746.806     39355.00    262693.00
    9748.283     39778.00    262731.00
    9749.804     39963.00    262706.00
    9751.242     39907.00    262654.00
    9752.804     39690.00    262510.00
    9754.244     39442.00    262511.00
    9755.807     39173.00    262398.00
    9757.370     38956.00    262334.00
    9758.893     38909.00    262380.00
    9760.457     39099.00    262269.00
    9762.021     39366.00    262231.00
    9763.671     39630.00    262189.00
    9765.277     39840.00    262277.00
    9766.885     39779.00    262116.00
    9768.494     39497.00    262002.00
    9770.103     39074.00    262075.00
    9771.711     38470.00    262025.00
    9773.487     37413.00    260686.00
    9775.098     36166.00    257876.00
    9776.626     36581.00    265875.00
    9778.527     35920.00    264928.00
    9780.223     35645.00    264145.00
    9781.959     35531.00    263445.00
    9783.654     35445.00    263100.00
    9785.477     35172.00    261921.00
    9787.174     35187.00    263079.00
    9788.995     35005.00    262871.00
    9790.776     35055.00    262832.00
    9792.561     35314.00    262416.00
    9794.384     35878.00    262384.00
    9796.167     36427.00    262231.00
    9797.994     36981.00    262113.00
    9799.901     37511.00    261869.00
    9801.771     38015.00    261645.00
    9803.641     38619.00    262370.00
    9805.469     39076.00    262569.00
    9807.382     39384.00    262468.00
    9809.295     39581.00    262555.00
    9811.250     39687.00    262605.00
    9813.165     39711.00    262686.00
    9815.081     39716.00    262830.00
    9817.080     39560.00    262866.00
    9818.997     39377.00    262832.00
    9820.998     39243.00    262748.00
    9822.958     39283.00    262682.00
    9824.963     39590.00    262822.00
    9827.007     39769.00    262415.00
    9829.011     39814.00    261364.00
    9831.060     40166.00    262755.00
    9833.149     40166.00    262444.00
    9835.239     40177.00    262230.00
    9837.248     40237.00    262018.00
    9839.383     40434.00    262038.00
    9841.476     40610.00    261882.00
    9843.570     40746.00    261731.00
    9845.749     40786.00    261528.00
    9847.887     40184.00    258181.00
    9850.026     40640.00    262188.00
    9852.208     40618.00    263610.00
    9854.391     40248.00    263061.00
    9856.575     39912.00    262658.00
    9858.761     39632.00    262643.00
    9860.988     39364.00    262567.00
    9863.176     39194.00    262675.00
    9865.405     39076.00    262732.00
    9867.679     39080.00    262676.00
    9869.954     39306.00    262654.00
    9872.229     39611.00    262800.00
    9874.464     39866.00    262774.00
    9876.782     40019.00    262778.00
    9879.103     40065.00    261868.00
    9881.425     40419.00    263095.00
    9883.749     40576.00    262917.00
    9886.115     40835.00    262613.00
    9888.440     41203.00    262672.00
    9890.810     41555.00    262321.00
    9893.179     41797.00    261673.00
    9895.676     42333.00    262678.00
    9898.049     42590.00    262404.00
    9900.464     42784.00    262367.00
    9902.882     42849.00    262277.00
    9905.300     42810.00    262180.00
    9907.761     42806.00    262166.00
    9910.268     42835.00    262130.00
    9912.688     42903.00    262062.00
    9915.239     43050.00    261979.00
    9917.750     43214.00    262116.00
    9920.260     43140.00    260927.00
    9922.771     43512.00    262640.00
    9925.286     43599.00    262572.00
    9927.673     43623.00    262448.00
    9930.400     43691.00    262466.00
    9932.961     43735.00    262298.00
    9935.564     43824.00    262269.00
    9938.214     43912.00    262365.00
    9940.776     43977.00    262252.00
    9943.429     44079.00    262363.00
    9946.038     44119.00    262269.00
    9948.691     44326.00    262300.00
    9951.391     44380.00    262278.00
    9954.047     44376.00    262226.00
    9956.747     44363.00    262349.00
    9959.450     44311.00    262200.00
    9961.983     44383.00    262285.00
    9964.860     44424.00    262278.00
    9967.653     44574.00    262299.00
    9970.405     44704.00    262389.00
    9973.157     44766.00    262238.00
    9975.912     44863.00    262201.00
    9978.712     45034.00    262368.00
    9981.298     45156.00    261920.00
    9984.315     44789.00    258676.00
    9987.163     45823.00    264111.00
    9989.926     45854.00    263482.00
    9992.819     45929.00    263051.00
    9995.844     46042.00    262618.00
    9998.569     46249.00    262324.00
   10001.380     46408.00    261830.00
   10004.280     46600.00    261659.00
   10007.230     47061.00    262874.00
   10010.130     47187.00    262646.00
   10013.080     47272.00    262424.00
   10015.990     47406.00    262483.00
   10018.940     47577.00    262291.00
   10021.980     47748.00    262411.00
   10024.900     47934.00    262362.00
   10027.940     48027.00    262330.00
   10030.900     48131.00    262258.00
   10033.950     48251.00    262231.00
   10036.960     48323.00    262141.00
   10040.050     48411.00    262159.00
   10042.890     48499.00    262173.00
   10046.160     48579.00    262084.00
   10049.180     48627.00    262015.00
   10052.280     48767.00    262205.00
   10055.390     48852.00    262156.00
   10058.500     48926.00    262035.00
   10061.600     49097.00    262189.00
   10064.800     49161.00    262059.00
   10067.960     49224.00    261792.00
   10071.120     49442.00    262002.00
   10074.280     49584.00    262015.00
   10077.450     49716.00    262087.00
   10080.660     49817.00    262048.00
   10083.870     49916.00    262059.00
   10087.080     50091.00    262218.00
   10090.300     50192.00    262032.00
   10093.600     50357.00    262047.00
   10096.870     50550.00    262099.00
   10100.090     50692.00    261970.00
   10103.360     50853.00    261895.00
   10106.720     50949.00    261595.00
   10110.040     51150.00    261830.00
   10113.350     51294.00    261751.00
   10116.680     51382.00    261729.00
   10120.040     51481.00    261658.00
   10123.370     51671.00    261592.00
   10126.740     51876.00    261727.00
   10130.160     52040.00    261774.00
   10133.540     52193.00    261717.00
   10136.920     52411.00    261895.00
   10140.350     52554.00    261919.00
   10143.780     52833.00    261985.00
   10147.250     53029.00    262045.00
   10150.680     53259.00    262160.00
   10154.170     53460.00    262237.00
   10157.650     53659.00    262373.00
   10161.130     53840.00    262421.00
   10164.620     54028.00    262491.00
   10168.160     54184.00    262456.00
   10171.690     54169.00    262276.00
   10175.190     54312.00    262180.00
   10178.730     54520.00    262224.00
   10182.370     54620.00    262055.00
   10185.920     54683.00    261533.00
   10189.470     54833.00    262143.00
   10193.110     54939.00    261943.00
   10196.660     55139.00    261859.00
   10200.360     55050.00    260582.00
   10203.960     55504.00    261886.00
   10207.620     55777.00    262661.00
