#XDI/1.1    Epics StepScan File / 2.0
# Column.1: energy eV
# Column.2: i0 counts
# Column.3: itrans counts
# Scan.start_time: 2016-03-21 12:36:06
# Scan.end_time: 2016-03-21 12:50:42
# Element.symbol:  Zn
# Element.edge:  K
# Mono.d_spacing: 3.13477
# Mono.name:  Si (111)
# Sample.name: zinc oxide
# Sample.formula: ZnO
# Sample.prep: powder on tape, many layers
# Sample.temperature: room temperature
# Beamline.Name:  13-ID-E
# Facility.Name:  APS
# Beamline.xray_source:  undulator 36 mm
# Detector.I0: 2   nA/V, He 200 mm
# Detector.I1: 200 nA/V, N2 100 mm
# ScanParameters.E0: 9659.000
# ScanParameters.Legend:  Start, Stop, Step, K-space, Time
# ScanParameters.Region1:    -75.000,   -10.000,     5.000  False  1.00
# ScanParameters.Region2:    -10.000,    19.997,     0.100  False  1.00
# ScanParameters.Region3:      2.291,    13.000,     0.051  True  1.00
# ------------------------
# energy      i0    itrans
    9584.00000  117096.099842    89590.699906
    9589.00000  179224.099842   137101.699906
    9594.00000  178130.099842   136378.699906
    9599.00000  177549.099842   136115.699906
    9604.00000  176907.099842   135729.699906
    9609.00000  176207.099842   135322.699906
    9614.00000  175620.099842   134976.699906
    9619.00000  174583.099842   134353.699906
    9624.00000  173912.099842   133974.699906
    9629.00000  172665.099842   133103.699906
    9634.00000  172831.099842   133383.699906
    9639.00000  172605.099842   133330.699906
    9644.00000  171975.099842   132935.699906
    9649.00000  170999.099842   132314.699906
    9649.09999  171259.099842   132524.699906
    9649.19998  171195.099842   132450.699906
    9649.29997  171271.099842   132523.699906
    9649.39996  171284.099842   132560.699906
    9649.49995  171353.099842   132581.699906
    9649.59994  171147.099842   132456.699906
    9649.69993  171233.099842   132518.699906
    9649.79992  171248.099842   132543.699906
    9649.89991  171105.099842   132437.699906
    9649.99990  171156.099842   132462.699906
    9650.09989  170910.099842   132286.699906
    9650.19988  170785.099842   132207.699906
    9650.29987  170925.099842   132312.699906
    9650.39986  170876.099842   132273.699906
    9650.49985  170934.099842   132341.699906
    9650.59984  170904.099842   132287.699906
    9650.69983  170817.099842   132245.699906
    9650.79982  171053.099842   132407.699906
    9650.89981  170856.099842   132288.699906
    9650.99980  170583.099842   132100.699906
    9651.09979  170634.099842   132113.699906
    9651.19978  170467.099842   132020.699906
    9651.29977  170492.099842   131994.699906
    9651.39976  170595.099842   132083.699906
    9651.49975  170333.099842   131888.699906
    9651.59974  170500.099842   132027.699906
    9651.69973  170249.099842   131832.699906
    9651.79972  170195.099842   131829.699906
    9651.89971  170381.099842   131976.699906
    9651.99970  170072.099842   131727.699906
    9652.09969  170121.099842   131794.699906
    9652.19968  170208.099842   131858.699906
    9652.29967  170018.099842   131693.699906
    9652.39966  169853.099842   131582.699906
    9652.49965  169855.099842   131563.699906
    9652.59964  170046.099842   131721.699906
    9652.69963  170379.099842   131959.699906
    9652.79962  170228.099842   131867.699906
    9652.89961  169886.099842   131613.699906
    9652.99960  170049.099842   131756.699906
    9653.09959  170024.099842   131729.699906
    9653.19958  170035.099842   131774.699906
    9653.29957  170194.099842   131852.699906
    9653.39956  170181.099842   131854.699906
    9653.49955  170198.099842   131862.699906
    9653.59954  170105.099842   131840.699906
    9653.69953  170228.099842   131920.699906
    9653.79952  170123.099842   131819.699906
    9653.89951  169987.099842   131750.699906
    9653.99950  170101.099842   131845.699906
    9654.09949  170151.099842   131899.699906
    9654.19948  170229.099842   131937.699906
    9654.29947  170122.099842   131864.699906
    9654.39946  170062.099842   131797.699906
    9654.49945  169909.099842   131697.699906
    9654.59944  170042.099842   131777.699906
    9654.69943  170022.099842   131748.699906
    9654.79942  169859.099842   131644.699906
    9654.89941  169811.099842   131624.699906
    9654.99940  169807.099842   131636.699906
    9655.09939  169775.099842   131620.699906
    9655.19938  169641.099842   131492.699906
    9655.29937  169752.099842   131605.699906
    9655.39936  169629.099842   131501.699906
    9655.49935  169758.099842   131592.699906
    9655.59934  169770.099842   131630.699906
    9655.69933  169726.099842   131566.699906
    9655.79932  170614.099842   132261.699906
    9655.89931  170474.099842   132147.699906
    9655.99930  170816.099842   132396.699906
    9656.09929  170578.099842   132229.699906
    9656.19928  170281.099842   132011.699906
    9656.29927  169925.099842   131733.699906
    9656.39926  169850.099842   131679.699906
    9656.49925  169768.099842   131631.699906
    9656.59924  169571.099842   131495.699906
    9656.69923  169489.099842   131417.699906
    9656.79922  169617.099842   131472.699906
    9656.89921  169764.099842   131596.699906
    9656.99920  169685.099842   131542.699906
    9657.09919  169769.099842   131620.699906
    9657.19918  169782.099842   131601.699906
    9657.29917  169571.099842   131456.699906
    9657.39916  169511.099842   131427.699906
    9657.49915  169558.099842   131442.699906
    9657.59914  169366.099842   131313.699906
    9657.69913  169247.099842   131195.699906
    9657.79912  169104.099842   131086.699906
    9657.89911  168948.099842   130973.699906
    9657.99910  168799.099842   130873.699906
    9658.09909  168676.099842   130739.699906
    9658.19908  168391.099842   130552.699906
    9658.29907  168386.099842   130537.699906
    9658.39906  168519.099842   130595.699906
    9658.49905  168349.099842   130495.699906
    9658.59904  168222.099842   130387.699906
    9658.69903  168373.099842   130524.699906
    9658.79902  168687.099842   130752.699906
    9658.89901  169483.099842   131349.699906
    9658.99900  168913.099842   130902.699906
    9659.09899  168482.099842   130585.699906
    9659.19898  168335.099842   130454.699906
    9659.29897  168148.099842   130307.699906
    9659.39896  168226.099842   130346.699906
    9659.49895  168611.099842   130631.699906
    9659.59894  168563.099842   130591.699906
    9659.69893  168582.099842   130603.699906
    9659.79892  168607.099842   130634.699906
    9659.89891  168754.099842   130744.699906
    9659.99890  168631.099842   130629.699906
    9660.09889  168759.099842   130691.699906
    9660.19888  168457.099842   130454.699906
    9660.29887  168758.099842   130659.699906
    9660.39886  168489.099842   130433.699906
    9660.49885  168761.099842   130612.699906
    9660.59884  168478.099842   130374.699906
    9660.69883  168744.099842   130567.699906
    9660.79882  168367.099842   130231.699906
    9660.89881  168487.099842   130297.699906
    9660.99880  168451.099842   130241.699906
    9661.09879  168530.099842   130262.699906
    9661.19878  168401.099842   130141.699906
    9661.29877  168571.099842   130230.699906
    9661.39876  168426.099842   130070.699906
    9661.49875  168476.099842   130061.699906
    9661.59874  168509.099842   130049.699906
    9661.69873  168344.099842   129855.699906
    9661.79872  168230.099842   129675.699906
    9661.89871  168195.099842   129559.699906
    9661.99870  168205.099842   129505.699906
    9662.09869  168348.099842   129519.699906
    9662.19868  168386.099842   129489.699906
    9662.29867  168359.099842   129355.699906
    9662.39866  168248.099842   129136.699906
    9662.49865  168421.099842   129173.699906
    9662.59864  168208.099842   128904.699906
    9662.69863  168475.099842   128957.699906
    9662.79862  168509.099842   128844.699906
    9662.89861  168625.099842   128800.699906
    9662.99860  168441.099842   128508.699906
    9663.09859  168657.099842   128521.699906
    9663.19858  168217.099842   128028.699906
    9663.29857  168650.099842   128195.699906
    9663.39856  168589.099842   127947.699906
    9663.49855  168684.099842   127813.699906
    9663.59854  168450.099842   127453.699906
    9663.69853  168647.099842   127403.699906
    9663.79852  168525.099842   127098.699906
    9663.89851  168528.099842   126895.699906
    9663.99850  168302.099842   126511.699906
    9664.09849  168457.099842   126440.699906
    9664.19848  168633.099842   126352.699906
    9664.29847  168469.099842   125976.699906
    9664.39846  168592.099842   125845.699906
    9664.49845  168190.099842   125343.699906
    9664.59844  168479.099842   125346.699906
    9664.69843  168008.099842   124762.699906
    9664.79842  168212.099842   124715.699906
    9664.89841  168064.099842   124402.699906
    9664.99840  168111.099842   124233.699906
    9665.09839  168056.099842   123949.699906
    9665.19838  168109.099842   123799.699906
    9665.29837  168176.099842   123659.699906
    9665.39836  168083.099842   123372.699906
    9665.49835  167980.099842   123083.699906
    9665.59834  167959.099842   122861.699906
    9665.69833  167890.099842   122598.699906
    9665.79832  167827.099842   122393.699906
    9665.89831  167712.099842   122084.699906
    9665.99830  167749.099842   121926.699906
    9666.09829  167625.099842   121638.699906
    9666.19828  167907.099842   121633.699906
    9666.29827  167665.099842   121265.699906
    9666.39826  167517.099842   120975.699906
    9666.49825  167542.099842   120816.699906
    9666.59824  167768.099842   120797.699906
    9666.69823  167429.099842   120414.699906
    9666.79822  167861.099842   120573.699906
    9666.89821  167562.099842   120204.699906
    9666.99820  167904.099842   120281.699906
    9667.09819  167672.099842   119987.699906
    9667.19818  167893.099842   120072.699906
    9667.29817  167742.099842   119839.699906
    9667.39816  167775.099842   119767.699906
    9667.49815  167635.099842   119587.699906
    9667.59814  167547.099842   119427.699906
    9667.69813  167785.099842   119513.699906
    9667.79812  167675.099842   119382.699906
    9667.89811  167673.099842   119329.699906
    9667.99810  167338.099842   119045.699906
    9668.09809  167547.099842   119174.699906
    9668.19808  167448.099842   119055.699906
    9668.29807  167490.099842   119038.699906
    9668.39806  167729.099842   119182.699906
    9668.49805  167341.099842   118891.699906
    9668.59804  167553.099842   119007.699906
    9668.69803  167507.099842   118959.699906
    9668.79802  167520.099842   118948.699906
    9668.89801  167389.099842   118849.699906
    9668.99800  167651.099842   119049.699906
    9669.09799  167396.099842   118895.699906
    9669.19798  167771.099842   119148.699906
    9669.29797  167408.099842   118918.699906
    9669.39796  167457.099842   118956.699906
    9669.49795  167300.099842   118858.699906
    9669.59794  167649.099842   119091.699906
    9669.69793  167113.099842   118777.699906
    9669.79792  167329.099842   118923.699906
    9669.89791  167029.099842   118725.699906
    9669.99790  167160.099842   118861.699906
    9670.09789  167244.099842   118925.699906
    9670.19788  167048.099842   118849.699906
    9670.29787  167063.099842   118863.699906
    9670.39786  166635.099842   118599.699906
    9670.49785  166949.099842   118842.699906
    9670.59784  166413.099842   118500.699906
    9670.69783  166828.099842   118878.699906
    9670.79782  166453.099842   118649.699906
    9670.89781  166820.099842   118964.699906
    9670.99780  166721.099842   118943.699906
    9671.09779  166678.099842   119023.699906
    9671.19778  166750.099842   119145.699906
    9671.29777  166604.099842   119069.699906
    9671.39776  166869.099842   119335.699906
    9671.49775  166376.099842   119111.699906
    9671.59774  166754.099842   119432.699906
    9671.69773  166573.099842   119419.699906
    9671.79772  166793.099842   119654.699906
    9671.89771  166536.099842   119557.699906
    9671.99770  166672.099842   119734.699906
    9672.09769  166564.099842   119771.699906
    9672.19768  166993.099842   120181.699906
    9672.29767  166656.099842   120021.699906
    9672.39766  166673.099842   120130.699906
    9672.49765  166614.099842   120218.699906
    9672.59764  166892.099842   120519.699906
    9672.69763  166684.099842   120426.699906
    9672.79762  166636.099842   120544.699906
    9672.89761  166734.099842   120706.699906
    9672.99760  166414.099842   120572.699906
    9673.09759  166559.099842   120769.699906
    9673.19758  166015.099842   120485.699906
    9673.29757  166484.099842   120966.699906
    9673.39756  166243.099842   120806.699906
    9673.49755  166474.099842   121101.699906
    9673.59754  166174.099842   120970.699906
    9673.69753  166460.099842   121247.699906
    9673.79752  166250.099842   121189.699906
    9673.89751  166371.099842   121363.699906
    9673.99750  166114.099842   121257.699906
    9674.09749  166189.099842   121369.699906
    9674.19748  166179.099842   121457.699906
    9674.29747  166065.099842   121425.699906
    9674.39746  166243.099842   121629.699906
    9674.49745  165984.099842   121485.699906
    9674.59744  166312.099842   121802.699906
    9674.69743  166356.099842   121893.699906
    9674.79742  166334.099842   121939.699906
    9674.89741  166320.099842   121974.699906
    9674.99740  166234.099842   122001.699906
    9675.09739  166273.099842   122038.699906
    9675.19738  166365.099842   122194.699906
    9675.29737  166307.099842   122199.699906
    9675.39736  166429.099842   122341.699906
    9675.49735  166662.099842   122540.699906
    9675.59734  166390.099842   122395.699906
    9675.69733  166651.099842   122664.699906
    9675.79732  166402.099842   122523.699906
    9675.89731  166517.099842   122673.699906
    9675.99730  166267.099842   122562.699906
    9676.09729  166355.099842   122646.699906
    9676.19728  166309.099842   122661.699906
    9676.29727  166568.099842   122892.699906
    9676.39726  166229.099842   122685.699906
    9676.49725  166331.099842   122804.699906
    9676.59724  166280.099842   122798.699906
    9676.69723  166535.099842   122990.699906
    9676.79722  166422.099842   122968.699906
    9676.89721  166168.099842   122817.699906
    9676.99720  166217.099842   122913.699906
    9677.09719  166074.099842   122821.699906
    9677.19718  166155.099842   122932.699906
    9677.29717  165829.099842   122707.699906
    9677.39716  166164.099842   122967.699906
    9677.49715  165996.099842   122883.699906
    9677.59714  166163.099842   123020.699906
    9677.69713  165802.099842   122764.699906
    9677.79712  166185.099842   123050.699906
    9677.89711  165875.099842   122858.699906
    9677.99710  166131.099842   123054.699906
    9678.09709  166110.099842   123046.699906
    9678.19708  166013.099842   122975.699906
    9678.29707  165875.099842   122893.699906
    9678.39706  165877.099842   122892.699906
    9678.49705  165982.099842   122955.699906
    9678.59704  165898.099842   122901.699906
    9678.69703  165951.099842   122972.699906
    9678.79702  165924.099842   122955.699906
    9678.89701  165850.099842   122909.699906
    9678.99700  165950.099842   122982.699906
    9679.88893  165810.099842   122720.699906
    9680.79994  165831.099842   122644.699906
    9681.73039  165471.099842   122386.699906
    9682.68029  165601.099842   122644.699906
    9683.64963  165365.099842   122696.699906
    9684.63841  165449.099842   122964.699906
    9685.64664  165033.099842   122933.699906
    9686.67431  165285.099842   123370.699906
    9687.72142  164892.099842   123383.699906
    9688.78798  164874.099842   123612.699906
    9689.87398  164648.099842   123609.699906
    9690.97942  164421.099842   123671.699906
    9692.10431  164393.099842   123862.699906
    9693.24864  164274.099842   123979.699906
    9694.41242  164066.099842   123943.699906
    9695.59564  163826.099842   123851.699906
    9696.79830  163918.099842   123919.699906
    9698.02041  163128.099842   123349.699906
    9699.26196  163303.099842   123427.699906
    9700.52296  162976.099842   123060.699906
    9701.80339  162878.099842   122900.699906
    9703.10328  162329.099842   122339.699906
    9704.42260  162557.099842   122313.699906
    9705.76137  162373.099842   122055.699906
    9707.11958  162336.099842   121898.699906
    9708.49724  161605.099842   121240.699906
    9709.89434  161807.099842   121276.699906
    9711.31088  159046.099842   119093.699906
    9712.74687  161402.099842   120759.699906
    9714.20230  161519.099842   120710.699906
    9715.67718  161310.099842   120456.699906
    9717.17150  161204.099842   120426.699906
    9718.68526  161026.099842   120419.699906
    9720.21847  161017.099842   120562.699906
    9721.77112  160773.099842   120503.699906
    9723.34321  160879.099842   120664.699906
    9724.93475  160399.099842   120334.699906
    9726.54573  160518.099842   120499.699906
    9728.17615  160279.099842   120382.699906
    9729.82602  160240.099842   120411.699906
    9731.49533  159628.099842   120020.699906
    9733.18409  159716.099842   120098.699906
    9734.89229  159217.099842   119782.699906
    9736.61993  159167.099842   119785.699906
    9738.36702  159027.099842   119725.699906
    9740.13355  158751.099842   119586.699906
    9741.91952  158935.099842   119833.699906
    9743.72494  158511.099842   119610.699906
    9745.54980  158610.099842   119831.699906
    9747.39411  158251.099842   119719.699906
    9749.25786  158176.099842   119794.699906
    9751.14105  157751.099842   119625.699906
    9753.04369  157779.099842   119747.699906
    9754.96577  157340.099842   119576.699906
    9756.90729  157185.099842   119527.699906
    9758.86826  157069.099842   119535.699906
    9760.84867  156641.099842   119308.699906
    9762.84853  156572.099842   119318.699906
    9764.86783  155948.099842   118855.699906
    9766.90657  156034.099842   118955.699906
    9768.96475  155426.099842   118481.699906
    9771.04238  155278.099842   118379.699906
    9773.13946  155084.099842   118245.699906
    9775.25597  154596.099842   117852.699906
    9777.39194  154839.099842   118077.699906
    9779.54734  154475.099842   117773.699906
    9781.72219  152581.099842   116357.699906
    9783.91648  154170.099842   117634.699906
    9786.13022  154046.099842   117572.699906
    9788.36340  150732.099842   115099.699906
    9790.61602  153245.099842   117046.699906
    9792.88809  154095.099842   117703.699906
    9795.17960  153810.099842   117521.699906
    9797.49055  153650.099842   117459.699906
    9799.82095  153583.099842   117445.699906
    9802.17079  153593.099842   117551.699906
    9804.54008  153261.099842   117380.699906
    9806.92880  153201.099842   117430.699906
    9809.33698  152681.099842   117087.699906
    9811.76459  152869.099842   117319.699906
    9814.21165  152508.099842   117122.699906
    9816.67816  152484.099842   117205.699906
    9819.16411  152277.099842   117111.699906
    9821.66950  152132.099842   117043.699906
    9824.19433  151841.099842   116871.699906
    9826.73861  150389.099842   115808.699906
    9829.30233  151364.099842   116632.699906
    9831.88550  149899.099842   115568.699906
    9834.48811  150042.099842   115729.699906
    9837.11016  150923.099842   116476.699906
    9839.75166  150465.099842   116237.699906
    9842.41260  150473.099842   116311.699906
    9845.09298  150245.099842   116229.699906
    9847.79281  150070.099842   116208.699906
    9850.51208  149809.099842   116067.699906
    9853.25080  150048.099842   116349.699906
    9856.00896  149539.099842   116041.699906
    9858.78656  149611.099842   116176.699906
    9861.58361  149299.099842   116024.699906
    9864.40010  149148.099842   115981.699906
    9867.23603  148811.099842   115791.699906
    9870.09141  148624.099842   115698.699906
    9872.96623  148574.099842   115696.699906
    9875.86050  148574.099842   115720.699906
    9878.77421  148031.099842   115377.699906
    9881.70736  147876.099842   115270.699906
    9884.65996  147470.099842   114998.699906
    9887.63200  147258.099842   114913.699906
    9890.62348  146645.099842   114486.699906
    9893.63441  146583.099842   114481.699906
    9896.66478  146196.099842   114250.699906
    9899.71459  146064.099842   114198.699906
    9902.78385  145673.099842   113973.699906
    9905.87255  145273.099842   113752.699906
    9908.98070  144939.099842   113553.699906
    9912.10829  144461.099842   113282.699906
    9915.25532  144554.099842   113419.699906
    9918.42180  144005.099842   113068.699906
    9921.60772  143878.099842   113028.699906
    9924.81308  141778.099842   111401.699906
    9928.03789  143384.099842   112785.699906
    9931.28214  143011.099842   112572.699906
    9934.54584  142833.099842   112498.699906
    9937.82898  142844.099842   112565.699906
    9941.13156  142454.099842   112373.699906
    9944.45359  142510.099842   112465.699906
    9947.79506  142228.099842   112322.699906
    9951.15597  142169.099874   112338.699924
    9954.53633  137190.099842   108436.699906
    9957.93613  142383.099842   112625.699906
    9961.35538  142223.099842   112565.699906
    9964.79407  141676.099842   112206.699906
    9968.25220  141085.099842   111816.699906
    9971.72978  140155.099842   111127.699906
    9975.22680  140132.099842   111197.699906
    9978.74326  138570.099842   110015.699906
    9982.27917  140818.099842   111916.699906
    9985.83452  132287.099842   105190.699906
    9989.40931  139516.099842   111067.699906
    9993.00355  140061.099842   111555.699906
    9996.61723  139706.099842   111304.699906
   10000.25036  140349.099842   111906.699906
   10003.90293  140519.099842   112074.699906
   10007.57494  140492.099842   112095.699906
   10011.26640  140234.099842   111940.699906
   10014.97730  140341.099842   112110.699906
   10018.70764  140140.099842   112025.699906
   10022.45743  140106.099842   112075.699906
   10026.22666  139753.099842   111860.699906
   10030.01534  139357.099842   111614.699906
   10033.82346  139091.099842   111458.699906
   10037.65102  139192.099842   111607.699906
   10041.49803  139022.099842   111529.699906
   10045.36448  138384.099842   111131.699906
   10049.25037  134705.099842   108226.699906
   10053.15571  138000.099842   110940.699906
   10057.08049  138123.099842   111117.699906
   10061.02471  137958.099842   111032.699906
   10064.98838  137723.099842   110932.699906
   10068.97150  137446.099842   110818.699906
   10072.97405  137422.099842   110867.699906
   10076.99605  136973.099842   110605.699906
   10081.03750  136352.099842   110185.699906
   10085.09838  136222.099842   110142.699906
   10089.17871  135868.099842   109924.699906
   10093.27849  136221.099842   110284.699906
   10097.39771  135911.099842   110087.699906
   10101.53637  135202.099842   109607.699906
   10105.69447  135248.099842   109720.699906
   10109.87202  135323.099842   109857.699906
   10114.06902  135167.099842   109794.699906
   10118.28545  135167.099842   109822.699906
   10122.52133  134707.099842   109525.699906
   10126.77666  134694.099842   109596.699906
   10131.05143  133938.099842   109109.699906
   10135.34564  134114.099842   109304.699906
   10139.65929  134265.099842   109482.699906
   10143.99239  134329.099842   109608.699906
   10148.34493  134322.099842   109670.699906
   10152.71692  133998.099842   109487.699906
   10157.10835  133738.099842   109368.699906
   10161.51922  133541.099842   109298.699906
   10165.94954  133483.099842   109308.699906
   10170.39930  133471.099842   109367.699906
   10174.86851  132873.099842   108973.699906
   10179.35716  132711.099842   108891.699906
   10183.86525  132398.099842   108729.699906
   10188.39279  132112.099842   108573.699906
   10192.93976  131925.099842   108493.699906
   10197.50619  131291.099842   108088.699906
   10202.09206  130957.099842   107921.699906
   10206.69737  130524.099842   107615.699906
   10211.32212  130295.099842   107543.699906
   10215.96632  130217.099842   107545.699906
   10220.62996  129677.099842   107155.699906
   10225.31305  130023.099842   107492.699906
   10230.01558  129685.099842   107311.699906
   10234.73755  129262.099842   107025.699906
   10239.47897  128785.099842   106728.699906
   10244.23983  128506.099842   106574.699906
   10249.02013  128251.099842   106467.699906
   10253.81988  127555.099842   105948.699906
   10258.63907  127264.099842   105820.699906
   10263.47770  126617.099842   105370.699906
   10268.33578  126315.099842   105160.699906
   10273.21331  126030.099842   105001.699906
   10278.11027  125784.099842   104868.699906
   10283.02668  125535.099842   104724.699906
   10287.96254  125106.099842   104467.699906
   10292.91783  125110.099842   104541.699906
   10297.89257  124195.099842   103866.699906
   10302.88676  124269.099842   103956.699906
