# XDI/1.0
# Column.1: energy eV
# Column.2: i0
# Column.3: itrans
# Column.4: irefer
# Beamline.name: SSRL 4-3
# Detector.I0: Ar 30cm
# Detector.I1: Kr 15cm
# Detector.I2: Kr 15cm
# Element.edge: K
# Element.symbol: Cd
# Mono.d_spacing: 1.92009
# Mono.name: Si(220)
# Mono.notes: unfocused, detuned 20% at E=27800eV
# Sample.formula: CdO
# Sample.name: CdO monteponite
# Sample.prep: powder, mixed with B(OH)3
# Sample.reference: Cd foil
# Sample.temperature: 10K
# Scan.start_time: 1995-06-16 13:03:55
# ///
#    Note: mono d_spacing is nominal!
#     exafs to K17
#     368  E XMU XMUR I0
#-------------
#   energy   i0   itrans  irefer
   26484.9590  60178.000000  156773.789794  573789.117108
   26495.3140  60022.000000  156577.792269  573638.244562
   26504.7320  60112.000000  156799.793168  575777.204906
   26515.1040  60103.000000  156895.794722  577123.832058
   26524.5390  59948.000000  156561.799933  576944.929868
   26534.9240  60037.000000  156887.790374  579194.785924
   26545.3160  60179.000000  157315.800664  581875.934618
   26554.7730  60033.000000  157163.790169  581680.024829
   26565.1820  60135.000000  157466.798798  584103.173842
   26574.6520  60163.000000  157508.802473  585531.127402
   26585.0780  60166.000000  157589.792781  586874.154166
   26594.5630  60116.000000  157498.798407  587502.105048
   26605.0040  60112.000000  157730.801007  588708.873423
   26615.4510  60094.000000  157733.800148  589834.980050
   26624.9590  60120.000000  157693.797925  590984.130373
   26635.4220  60309.000000  158172.790515  593631.078429
   26644.9430  60093.000000  157695.800228  592069.994716
   26655.4240  60152.000000  157800.802204  592746.898225
   26664.9590  60158.000000  157596.793973  592254.140653
   26675.4550  60124.000000  157145.793627  589793.807068
   26685.0060  59949.000000  155889.792735  582751.178818
   26685.9630  60213.000000  156396.801298  584995.044260
   26687.8730  60050.000000  155761.789297  581708.724175
   26688.8260  60126.000000  155829.795995  581656.088768
   26689.7830  60127.000000  155663.790425  580637.995890
   26691.6930  60059.000000  155029.793162  577062.922910
   26692.6520  60009.000000  154746.802806  575139.862858
   26693.6070  60094.000000  154565.801129  574139.215684
   26694.5610  59964.000000  154046.804591  570905.948341
   26696.4750  59918.000000  152881.798014  564410.069458
   26697.4320  59892.000000  152405.790856  560981.899488
   26698.3870  59988.000000  151918.796147  558098.875109
   26700.2990  59992.000000  149897.798718  546312.807934
   26701.2560  59971.000000  148840.790129  539808.912961
   26702.2130  60054.000000  147718.798669  533290.048639
   26704.1270  60097.000000  144137.790926  513124.098586
   26705.0820  60093.000000  142188.801458  502602.079312
   26706.0390  60044.000000  139969.791846  490975.204637
   26707.9530  59936.000000  134282.800324  462655.180583
   26708.9100  60080.000000  131964.798297  451508.052393
   26709.8670  59938.000000  129127.797806  438539.810073
   26710.8240  60042.000000  126457.795152  426742.854414
   26712.7380  59901.000000  120048.796722  399935.906082
   26713.6950  60075.000000  118126.795019  392168.102832
   26714.6520  60088.000000  115895.793374  383476.926871
   26716.5700  59912.000000  111882.791509  368354.879129
   26717.5250  60138.000000  111282.801360  366154.992769
   26718.4820  59960.000000  110228.796434  362353.832842
   26720.4000  59992.000000  109855.791573  361345.122628
   26721.3570  60030.000000  110187.794984  362573.835345
   26722.3160  59878.000000  110453.791702  363638.869665
   26723.2750  59928.000000  111218.801042  366641.833734
   26725.1890  59830.000000  112876.794237  373240.844657
   26726.1480  59981.000000  113998.802666  377637.954912
   26727.1070  59934.000000  114744.791368  380597.907435
   26729.0250  59937.000000  116138.798032  386311.875397
   26729.9800  59926.000000  116555.792938  387878.857412
   26730.9390  59998.000000  117005.802588  389746.110468
   26732.8570  59723.000000  116984.799299  389936.149245
   26733.8160  59847.000000  117379.796968  391431.998443
   26734.7750  59819.000000  117470.793443  391909.809787
   26736.6930  59701.000000  117553.796420  392491.181980
   26737.6520  59945.000000  118112.797059  394784.116568
   26738.6110  59771.000000  117932.802686  394063.078223
   26739.5720  59961.000000  118316.797414  395774.162114
   26741.4880  59803.000000  117974.798182  394497.982783
   26742.4490  59899.000000  117973.793462  394590.102334
   26743.4080  59807.000000  117555.799587  392927.104905
   26745.3260  59741.000000  116578.801474  389233.901395
   26746.2870  59836.000000  116333.793197  388158.043972
   26747.2480  59774.000000  115649.791266  385460.060722
   26749.1660  59802.000000  114240.800439  380038.857934
   26750.1270  119596.000000  227098.602665  754641.872868
   26751.0860  119720.980000  225787.585180  749707.903536
   26752.0470  119739.910000  224442.527879  744691.973035
   26753.0080  119894.630000  223327.247581  740585.562313
   26753.9670  119907.430000  222146.045552  736173.650015
   26754.9260  119820.170000  220935.794227  731688.689147
   26755.8890  119871.870000  220227.504267  729192.766027
   26756.8480  119937.530000  219739.163809  727558.365921
   26757.8090  119999.140000  219525.802331  726861.373269
   26758.7710  120088.710000  219687.376462  727755.048452
   26759.7300  120184.230000  220136.919800  729550.590776
   26760.6890  120338.700000  220969.408091  732825.248068
   26761.6500  120438.120000  221977.826013  736893.586262
   26762.6130  120536.510000  223211.263868  741695.435480
   26763.5740  120641.840000  224598.610590  747144.686247
   26764.5350  120944.130000  226480.920105  754611.995139
   26765.4960  121057.370000  228083.175092  760894.234135
   26767.4160  121103.580000  231049.416634  772670.435153
   26768.3790  121257.730000  232442.592454  778108.737910
   26769.3420  121520.840000  233893.730889  783873.668858
   26770.3030  121720.890000  235065.814554  788537.951783
   26771.2640  121956.910000  236057.869715  792414.002465
   26773.1880  122228.870000  237090.842855  796424.528455
   26774.1480  122500.800000  237559.818843  798339.911147
   26775.1090  122667.680000  237716.719448  798842.424432
   26777.0330  122799.510000  237199.586882  796771.490374
   26777.9960  123184.290000  237485.418722  797535.403466
   26778.9590  123279.030000  237254.195856  796502.384218
   26780.8810  123467.730000  236608.937694  793957.335660
   26781.8440  124019.370000  237226.590652  796291.052680
   26782.8070  124542.980000  237809.272706  798443.316144
   26784.7320  124787.530000  237817.846802  798566.328893
   26785.6950  125279.040000  238629.435443  801437.403153
   26787.6190  125518.510000  239130.932759  803430.140768
   26788.5820  125800.920000  239776.384422  805709.904251
   26790.5080  126196.300000  240750.837922  809477.947916
   26791.4710  126595.620000  241605.181384  812573.939037
   26793.3980  126904.910000  242411.541341  815677.344695
   26794.3590  127394.140000  243385.825933  819242.346308
   26796.2870  127717.330000  244165.082103  822248.419188
   26798.2130  128166.480000  245207.267781  826249.547772
   26799.1780  128623.570000  246205.431910  829892.584792
   26801.1040  129136.620000  247496.542870  834890.529374
   26803.0310  129529.630000  248546.601230  838828.569200
   26803.9960  129848.590000  249319.642831  841582.273888
   26805.9260  130395.510000  250458.619781  846032.450457
   26807.8540  130914.370000  251324.528277  849030.444868
   26809.7810  131354.200000  251703.420404  850221.149271
   26810.7440  131888.970000  252402.272015  852597.124985
   26812.6760  132404.700000  252439.077244  852304.571608
   26814.6040  132776.390000  252061.835176  850687.150367
   26816.5330  133272.030000  251862.569019  849567.653985
   26818.4610  133843.620000  251991.209391  849755.960981
   26820.3930  134411.170000  252414.842588  851197.289926
   26822.3240  134950.670000  253190.407442  853857.915158
   26823.2870  135608.120000  254409.953405  858273.622267
   26825.2190  135845.530000  255208.442136  861226.582126
   26827.1500  136380.910000  256766.902613  867077.775835
   26829.0820  137202.220000  258909.297049  875195.942802
   26831.0120  137737.500000  260574.654006  881512.691907
   26832.9450  138396.720000  262380.973124  888302.682408
   26834.8770  138980.910000  264014.251744  894245.267132
   26836.8110  139625.030000  265674.472633  900432.111734
   26839.7090  140037.120000  267101.658751  906143.181310
   26841.6410  140690.170000  268733.772633  912054.910113
   26843.5760  141360.170000  270441.884538  918490.195946
   26845.5080  142194.120000  272444.893047  926088.096105
   26847.4410  142838.030000  274184.909502  932508.932888
   26849.3770  143552.890000  276007.886262  939488.368939
   26851.3130  144260.700000  277763.763102  945953.089365
   26854.2130  145052.470000  279674.671186  953191.701295
   26856.1500  145833.190000  281193.469019  958753.433856
   26858.0840  146291.870000  282019.251330  961545.932633
   26860.0210  147184.500000  283454.013983  966707.436240
   26862.9240  147999.080000  284391.684152  970048.875682
   26864.8610  148624.620000  285166.322634  972571.503498
   26866.7990  149577.120000  286508.932210  977443.717960
   26869.7050  150373.560000  287432.485090  980611.148477
   26871.6410  151015.970000  288423.992244  983993.796647
   26874.5470  151953.330000  290066.478880  990013.059273
   26876.4860  152489.640000  291231.900666  994053.332172
   26878.4240  153241.890000  292870.272017  1000143.484662
   26881.3320  154008.110000  294906.619855  1007805.791962
   26883.2730  154813.300000  296903.917030  1015284.933537
   26886.1840  155968.420000  299832.159829  1026594.046490
   26888.1210  156798.500000  301843.370330  1034093.257021
   26891.0310  157825.530000  304250.532599  1043390.183540
   26892.9730  158376.520000  305489.630729  1047712.857150
   26895.8830  159443.470000  307392.717238  1054719.505863
   26898.7950  160182.360000  308438.729614  1058284.220983
   26900.7380  160876.220000  309426.705861  1061602.936811
   26903.6520  161935.020000  310906.661598  1066839.420425
   26906.5640  162991.780000  312537.533789  1072836.731284
   26908.5060  163733.500000  313866.364979  1077617.975578
   26911.4220  164782.160000  315849.192007  1085039.704364
   26914.3380  165730.780000  317772.927921  1091896.164768
   26916.2790  166920.360000  320064.651858  1100412.086191
   26919.1970  167595.890000  321635.354714  1106046.765978
   26922.1150  168571.370000  323737.959292  1114021.166713
   26925.0310  169685.810000  326155.529057  1123147.567241
   26927.9510  170352.220000  327940.069259  1129735.570613
   26929.8960  171230.560000  329964.559240  1137237.383419
   26932.8160  172172.860000  332419.016868  1146601.091179
   26935.7360  173298.110000  335320.399349  1157665.192544
   26938.6560  174431.330000  338264.772642  1169115.711434
   26941.5800  175133.480000  340512.088118  1177642.250768
   26944.5020  176141.610000  343283.375526  1187967.655797
   26947.4240  177187.690000  346042.592168  1198791.045944
   26950.3480  178145.700000  348583.763187  1208597.112501
   26953.2700  179415.690000  351431.918494  1219342.434120
   26956.1930  180441.620000  353500.991646  1227255.053354
   26959.1190  181726.520000  355723.064573  1235322.711298
   26962.0470  180851.360000  354078.053313  1227543.600034
   26964.9750  182080.160000  355780.023971  1233713.036077
   26967.9000  183539.910000  357851.944151  1241301.043329
   26970.8280  184243.610000  358728.792136  1244488.211555
   26973.7560  185509.270000  360768.635452  1251823.858727
   26976.6860  186776.890000  362886.387411  1259648.260875
   26980.5900  188240.450000  365260.148375  1268796.173433
   26983.5210  189261.980000  367027.836086  1275234.921560
   26986.4530  190114.450000  368590.458542  1280705.221166
   26989.3870  191190.890000  370703.092719  1288780.179924
   26992.3160  192182.270000  372952.678619  1297038.080876
   26996.2290  193367.610000  375996.145595  1309038.126949
   26999.1620  194821.910000  379610.626094  1322839.787921
   27002.0980  195821.160000  382556.055829  1334177.390092
   27006.0100  196939.360000  386282.421595  1348858.238187
   27008.9470  197983.520000  389611.775113  1361703.536036
   27011.8850  199331.620000  393502.047020  1377020.340092
   27015.8010  200592.690000  397578.315250  1393215.876571
   27018.7380  201235.700000  399748.523390  1401469.569937
   27021.6780  201832.670000  401349.688232  1407099.943695
   27025.5980  203618.590000  403900.793431  1416705.361662
   27028.5390  205291.480000  405889.852252  1423525.503942
   27032.4590  206273.310000  405875.895600  1422884.512471
   27035.4020  207520.110000  407248.860987  1427496.444255
   27039.3260  208884.840000  409208.822956  1434657.746149
   27042.2700  209950.550000  411570.704523  1443491.090305
   27046.1930  211047.200000  414654.567082  1455759.163138
   27049.1390  212582.800000  418431.400751  1470257.683827
   27053.0660  213833.360000  421753.120400  1483069.373333
   27056.9960  214103.870000  423078.851186  1488188.029168
   27059.9430  216002.340000  426936.478966  1502971.219638
   27063.8730  217003.770000  429261.129259  1511822.909694
   27067.8050  218316.140000  432083.732967  1522537.143653
   27070.7540  219758.470000  435061.273427  1533935.416424
   27074.6890  220955.770000  437755.767208  1544354.257636
   27078.6230  221717.000000  439950.180287  1552777.425598
   27081.5740  223060.190000  443292.598549  1565619.772515
   27085.5120  224224.340000  446713.955202  1579273.908050
   27089.4490  225122.440000  449695.295351  1591110.106791
   27093.3910  226609.500000  453565.581864  1606244.094098
   27097.3320  227777.520000  456618.779884  1618444.631612
   27100.2870  229481.470000  460312.950574  1632512.610049
   27104.2290  230477.390000  462551.113499  1641493.975013
   27108.1740  231719.270000  464814.218604  1649733.099398
   27112.1170  232862.090000  466583.263513  1656132.741956
   27116.0640  234076.870000  468271.223613  1662479.872493
   27120.0120  235548.610000  470495.222106  1670504.246833
   27123.9590  236650.300000  472193.152864  1676851.361036
   27127.9080  237772.940000  474016.999359  1683520.111341
   27131.8590  238955.530000  475962.832250  1691223.934974
   27135.8130  240670.090000  479127.563709  1703301.787842
   27139.7640  241687.590000  481391.342773  1712037.638815
   27143.7190  243077.050000  484651.013081  1724863.285033
   27147.6740  244012.470000  487477.692562  1736185.128794
   27151.6310  245698.830000  492193.296111  1754790.082458
   27155.5880  246581.160000  495845.848341  1769358.072327
   27159.5470  247886.440000  500511.381156  1788217.044789
   27163.5060  249074.670000  504789.863617  1805726.406400
   27167.4670  250305.840000  508772.280385  1821570.882717
   27172.4220  251326.980000  511761.655732  1833424.851865
   27176.3850  252833.080000  514695.986119  1844922.237966
   27180.3500  254240.120000  517050.254984  1854063.646423
   27184.3160  255169.120000  518468.534924  1859091.750036
   27188.2810  256284.090000  520402.762869  1866387.560567
   27193.2440  257675.000000  523228.881845  1877628.833372
   27197.2130  258775.860000  525663.977005  1887154.053885
   27201.1840  260100.670000  528312.121567  1897531.762734
   27206.1480  261515.450000  530540.110459  1905821.758764
   27210.1230  262536.190000  531936.137156  1910781.193387
   27214.0980  263701.840000  533754.059941  1917879.007779
   27219.0680  265059.500000  536539.953041  1929252.746767
   27223.0450  266426.090000  539811.804865  1942535.911455
   27227.0230  267843.620000  543458.639148  1956721.412202
   27232.0000  268713.120000  546335.383203  1968535.298936
   27235.9800  270177.560000  550051.039210  1983838.875268
   27240.9570  271426.970000  553917.753357  1999537.566549
   27244.9430  272667.340000  557723.387068  2014656.759859
   27249.9240  273800.660000  561808.937579  2031670.872471
   27253.9100  274781.910000  565092.496568  2044738.992878
   27258.8960  275902.160000  568304.013243  2057871.571888
   27262.8850  277255.310000  571133.440464  2069416.326111
   27267.8730  278515.440000  573335.865493  2077876.416761
   27272.8630  279468.530000  574871.186567  2084070.001621
   27276.8550  280797.560000  577550.556713  2094893.472585
   27281.8500  281733.560000  580170.834038  2105624.973587
   27285.8440  283205.500000  583900.085977  2120929.855385
   27290.8420  284434.410000  587563.239643  2135930.970062
   27295.8400  285963.280000  591606.377560  2152700.783084
   27299.8400  286884.090000  594132.445415  2162679.555031
   27304.8420  287813.840000  596172.516412  2170958.561149
   27309.8440  288771.560000  597580.513715  2176608.097954
   27314.8520  289987.250000  599252.506777  2183593.201567
   27318.8550  291710.870000  602284.388853  2195804.428255
   27323.8630  292509.440000  603985.227380  2202707.885824
   27328.8770  293763.970000  606959.108221  2215185.490305
   27333.8890  294784.470000  609793.868242  2226417.296820
   27338.9040  296143.910000  613623.604759  2242327.613710
   27343.9180  297402.310000  617775.301361  2260103.304806
   27347.9340  298397.660000  621583.917814  2275608.860292
   27352.9530  299554.970000  626424.552398  2296038.073751
   27357.9730  300177.220000  629988.102052  2311213.368998
   27362.9980  301492.440000  633989.657508  2327976.329889
   27368.0230  302569.590000  636514.119383  2338080.565521
   27373.0510  303663.720000  638309.582653  2345876.546662
   27378.0780  304648.810000  639825.939969  2351915.003893
   27383.1070  305401.840000  641308.305849  2358170.339948
   27388.1410  306300.810000  643432.584851  2367564.949089
   27393.1740  307394.750000  646126.788940  2378867.355252
   27398.2130  308365.660000  648455.049377  2388568.918205
   27403.2500  309700.500000  651289.211885  2401267.018585
   27408.2910  310825.310000  653855.284981  2411786.528964
   27413.3320  311835.060000  656043.366466  2421692.353035
   27419.3870  312764.780000  658276.467479  2431131.355603
   27424.4300  313539.440000  660471.423174  2440184.322843
   27429.4790  314606.060000  663572.391283  2453500.239129
   27434.5270  315361.620000  666413.254511  2466215.282943
   27439.5820  316483.160000  670286.165053  2483017.251223
   27444.6330  317626.620000  674265.831550  2500001.077813
   27450.6990  318202.060000  677053.699662  2512593.058269
   27455.7560  318964.440000  679459.360066  2522887.664856
   27460.8180  320358.780000  682735.044442  2536516.229151
   27465.8790  321257.090000  685066.700151  2547017.143979
   27471.9530  322188.340000  688028.238474  2560236.411330
   27477.0200  322678.560000  690222.809257  2570121.511301
   27482.0880  323649.720000  693339.320869  2583518.529269
   27488.1700  324290.810000  695443.711004  2593773.579821
   27493.2420  325241.870000  697746.196231  2603782.360513
   27499.3300  326280.910000  700046.595231  2614350.307992
   27504.4040  327077.870000  701781.833409  2622558.316745
   27509.4820  327875.810000  703694.145005  2631009.281125
   27515.5780  328343.720000  705142.342383  2637913.879264
   27520.6620  329175.530000  707453.592925  2649163.037867
   27526.7600  329858.340000  709926.674656  2660133.768894
   27531.8480  330671.090000  712251.796415  2670330.417321
   27537.9510  331455.780000  714396.840574  2680465.110291
   27543.0410  332549.440000  717030.831786  2692673.488052
   27549.1540  333195.060000  719575.809020  2704214.833464
   27554.2460  333855.620000  722379.716714  2717019.873958
   27560.3630  334983.120000  726162.589693  2734500.163274
   27565.4610  335775.590000  728635.458435  2745478.209612
   27571.5820  335919.030000  729151.149593  2749386.428286
   27577.7050  336398.410000  730654.933841  2756724.012055
   27582.8110  337281.750000  733586.658523  2770504.560688
   27588.9380  337714.030000  736703.328853  2785256.565788
   27595.0700  338279.280000  740050.943575  2800692.610584
   27600.1800  339107.470000  742949.502288  2813403.045410
   27606.3160  339810.620000  744857.006541  2823567.011811
   27612.4550  339954.720000  745556.509600  2828194.870773
   27618.5960  340459.780000  747312.844154  2836845.283864
   27623.7190  341529.810000  749978.295338  2849774.839800
   27629.8610  342144.780000  751411.607473  2857234.793864
   27636.0120  342518.690000  751594.932743  2859472.726794
   27642.1660  342715.560000  751238.165009  2860425.680269
   27647.2930  343974.410000  754015.379543  2872967.552786
   27653.4510  344250.190000  755915.569610  2882956.731957
   27659.6110  344938.940000  759730.690488  2900786.006168
   27665.7710  345268.620000  762685.702253  2915428.314877
   27671.9390  345875.250000  765324.832165  2928285.452424
   27678.1070  346115.870000  766666.735774  2935635.411530
   27684.2770  346325.410000  768009.670144  2943016.410711
   27690.4510  346651.940000  769816.613192  2953597.865987
   27696.6290  346861.410000  771560.436702  2962660.630842
   27702.8090  347181.810000  772913.229648  2970622.455638
   27708.9900  347738.190000  774539.042902  2979247.613851
   27715.1740  347765.500000  775214.761099  2984212.291510
   27721.3630  348437.780000  777576.458150  2996562.201326
   27727.5550  348919.030000  779662.075721  3007413.209931
   27733.7460  349321.220000  781286.640694  3016562.147051
   27739.9410  350133.340000  783562.205760  3028835.355103
   27746.1410  350160.470000  784660.652983  3035089.933335
   27752.3440  350239.500000  785722.130337  3042662.416999
   27758.5470  350592.500000  787276.546815  3050923.407565
   27764.7540  351083.470000  788449.927944  3058515.362210
   27770.9650  351087.370000  788458.213341  3061276.944028
   27778.2130  350267.250000  787479.496791  3060061.627776
   27784.4300  350005.060000  788134.776596  3065402.347966
   27790.6460  349980.840000  789300.894604  3072751.244565
   27796.8690  351083.590000  793017.066833  3090749.024480
   27803.0940  351660.250000  795288.157011  3103111.232695
   27810.3590  350535.910000  793882.253464  3100675.143121
   27816.5880  349666.500000  792636.272051  3098239.862972
   27822.8220  350814.030000  795761.210474  3113753.385958
   27829.0590  353161.530000  802183.146759  3143744.688607
   27836.3380  354152.000000  805579.987617  3160657.958139

