# XDI/1.0
# Column.1: energy eV
# Column.2: i0
# Column.3: itrans
# Column.4: irefer
# Beamline.name: SSRL 4-3
# Detector.I0: Ar 30cm
# Detector.I1: Kr 15cm
# Detector.I2: Kr 15cm
# Element.edge: K
# Element.symbol: Cd
# Mono.d_spacing: 1.92009
# Mono.name: Si(220)
# Mono.notes: unfocused, detuned 20% at E=27800eV
# Sample.formula: CdS
# Sample.name: CdS greenockite
# Sample.prep: powder, mixed with B(OH)3
# Sample.reference: Cd foil
# Sample.temperature: 10K
# Scan.start_time: 1995-06-16 15:35:58
# ///
#    Note: mono d_spacing is nominal!
#     exafs to K17
#     368  E XMU XMUR I0
#-------------
#   energy   i0   itrans  irefer
   26484.9590  48276.000000  113067.800449  614890.770295
   26495.3140  48302.000000  113136.795666  616283.242846
   26504.7320  48189.000000  112965.795618  615903.982761
   26515.1040  48388.000000  113359.802041  619606.035277
   26524.5390  48304.000000  113212.793137  619523.214274
   26534.9240  48388.000000  113473.797257  621792.197375
   26545.3160  48418.000000  113582.795347  623374.240446
   26554.7730  48339.000000  113504.795628  623361.176434
   26565.1820  48447.000000  113751.792610  625920.782093
   26574.6520  48458.000000  113800.799071  626959.875010
   26585.0780  48582.000000  114042.797195  629615.170287
   26594.5630  48478.000000  113862.796807  629110.040647
   26605.0040  48423.000000  113879.800146  629453.200917
   26615.4510  48548.000000  114116.801592  631998.802423
   26624.9590  48522.000000  114050.793176  632322.091859
   26635.4220  48586.000000  114098.798156  633679.130850
   26644.9430  48429.000000  113839.801243  631893.083301
   26655.4240  48609.000000  114069.795120  634094.184214
   26664.9590  48507.000000  113708.802616  631920.008575
   26675.4550  48566.000000  113490.802410  630255.818202
   26685.0060  48585.000000  112816.797422  625374.857091
   26685.9630  48523.000000  112714.797500  624267.968157
   26687.8730  48587.000000  112587.793663  623538.995092
   26688.8260  48527.000000  112415.794053  621992.754572
   26689.7830  48585.000000  112378.792552  621766.886094
   26691.6930  48571.000000  112036.795096  618993.854785
   26692.6520  48598.000000  111897.802583  617995.995582
   26693.6070  48572.000000  111649.793995  616075.261107
   26694.5610  48511.000000  111338.796821  613543.260760
   26696.4750  48633.000000  110922.794341  610182.695306
   26697.4320  48443.000000  110272.794860  605100.916985
   26698.3870  48602.000000  110127.796998  603960.913035
   26700.2990  48563.000000  108897.799605  594180.903347
   26701.2560  48522.000000  108144.792805  588458.851542
   26702.2130  48608.000000  107500.793229  583390.180865
   26704.1270  48522.000000  105065.798192  564902.869140
   26705.0820  48520.000000  103861.801536  555823.158872
   26706.0390  48460.000000  102476.798349  545683.106042
   26707.9530  48602.000000  99382.792235  523621.964584
   26708.9100  48493.000000  97683.792776  511881.758342
   26709.8670  48544.000000  96175.793882  501683.128953
   26710.8240  48448.000000  94338.799999  489456.972807
   26712.7380  48502.000000  90772.795729  466440.111738
   26713.6950  48562.000000  89333.801461  457471.200069
   26714.6520  48496.000000  87585.794392  446652.023404
   26716.5700  48441.000000  83997.796182  425224.201414
   26717.5250  48503.000000  82853.795265  418291.079117
   26718.4820  48576.000000  81633.799174  411173.958555
   26720.4000  48459.000000  79084.798823  396503.821694
   26721.3570  48467.000000  78360.796213  392403.149531
   26722.3160  48389.000000  77624.796228  388209.023593
   26723.2750  48450.000000  77292.794642  386385.176434
   26725.1890  48432.000000  76944.797740  384472.110663
   26726.1480  48480.000000  77035.799452  384986.104628
   26727.1070  48533.000000  77180.796720  385863.885462
   26729.0250  48451.000000  77279.798149  386436.893541
   26729.9800  48554.000000  77492.796266  387774.886042
   26730.9390  48453.000000  77440.798639  387434.869487
   26732.8570  48513.000000  77685.793535  389024.920000
   26733.8160  48427.000000  77673.800252  388855.188958
   26734.7750  48441.000000  77774.799324  389501.011633
   26736.6930  48392.000000  77923.798807  390388.114947
   26737.6520  48463.000000  78098.794407  391538.801440
   26738.6110  48461.000000  78192.798362  392088.880771
   26739.5720  48419.000000  78242.798925  392345.095695
   26741.4880  48477.000000  78531.793746  394125.173728
   26742.4490  48435.000000  78563.796805  394370.961456
   26743.4080  48453.000000  78681.798834  395109.861229
   26745.3260  48250.000000  78573.793498  394610.115384
   26746.2870  48395.000000  78863.799105  396284.862582
   26747.2480  48364.000000  78898.793428  396528.903618
   26749.1660  48421.000000  79107.794039  397763.021236
   26750.1270  96871.000000  158307.587439  796183.666867
   26751.0860  96827.977000  158261.570096  795989.640347
   26752.0470  96739.906000  158101.510100  795233.113116
   26753.0080  96837.633000  158170.250766  795667.980887
   26753.9670  96923.430000  158188.045278  795810.812880
   26754.9260  96773.172000  157791.794408  793639.562850
   26755.8890  96896.875000  157773.517106  793527.002208
   26756.8480  97042.531000  157732.166566  793401.537804
   26757.8090  97149.141000  157602.798428  792764.285776
   26758.7710  97301.711000  157507.373623  792227.243148
   26759.7300  97217.227000  157087.901097  789840.106604
   26760.6890  97511.703000  157190.398765  790465.333320
   26761.6500  97484.125000  156828.843867  788422.445244
   26762.6130  97543.508000  156603.246479  787047.430732
   26763.5740  97674.844000  156517.612535  786603.684293
   26764.5350  97912.133000  156592.920413  787051.413260
   26765.4960  97944.375000  156424.194976  785962.841198
   26767.4160  97966.578000  156016.407763  783710.098532
   26768.3790  98341.727000  156416.578534  785895.493253
   26769.3420  98590.836000  156658.725447  787248.312241
   26770.3030  98628.891000  156632.818546  786986.685994
   26771.2640  98791.906000  156809.858389  787948.693779
   26773.1880  98907.875000  156914.859385  788671.087529
   26774.1480  99169.797000  157326.820700  790827.845277
   26775.1090  99321.680000  157608.715221  792320.891284
   26777.0330  99435.508000  157913.588188  793958.325595
   26777.9960  99703.289000  158391.412737  796612.422789
   26778.9590  99997.031000  158924.189918  799505.407255
   26780.8810  100142.730000  159393.927296  802186.936302
   26781.8440  100350.380000  159869.612636  804602.657168
   26782.8070  100686.980000  160521.276305  808235.516148
   26784.7320  100909.530000  161277.853050  812434.806516
   26785.6950  101088.040000  161786.428088  815105.962653
   26787.6190  101293.510000  162649.933176  819957.280602
   26788.5820  101695.920000  163527.387549  824775.711278
   26790.5080  101868.300000  164433.840275  829866.880118
   26791.4710  102225.630000  165300.218904  834475.454383
   26793.3980  102511.910000  166357.533245  840518.772022
   26794.3590  102941.140000  167282.829307  845457.557166
   26796.2870  103264.330000  168284.081317  851019.048132
   26798.2130  103523.480000  169021.266939  855163.387251
   26799.1780  104012.570000  169885.428055  859807.268058
   26801.1040  104306.630000  170486.553178  863033.429417
   26803.0310  104529.630000  170823.604573  864818.338762
   26803.9960  105078.590000  171643.636448  869187.134194
   26805.9260  105328.510000  171844.609053  870217.893623
   26807.8540  105815.380000  172329.557834  872674.537874
   26809.7810  106053.200000  172374.451657  872715.098567
   26810.7440  106503.980000  172928.282296  875523.466881
   26812.6760  106903.700000  173144.071163  876445.066959
   26814.6040  107194.390000  173153.834333  876363.899598
   26816.5330  107749.030000  173607.556000  878604.037248
   26818.4610  108122.620000  173839.203380  879657.611085
   26820.3930  108447.170000  174055.835594  880611.138459
   26822.3240  108934.670000  174614.422789  883497.307966
   26823.2870  109607.120000  175567.965529  888572.494173
   26825.2190  109890.540000  175913.461739  890299.728345
   26827.1500  110417.910000  176673.915637  894261.062663
   26829.0820  110775.220000  177230.297574  897131.995217
   26831.0120  111196.490000  177909.646337  900704.123216
   26832.9450  111725.720000  178808.971775  905492.540404
   26834.8770  112274.910000  179764.240497  910626.858060
   26836.8110  112661.040000  180539.477314  914631.694654
   26839.7090  113148.120000  181565.624678  920214.832922
   26841.6410  113666.170000  182557.778804  925567.181791
   26843.5760  114263.170000  183707.863343  931752.104168
   26845.5080  114690.120000  184634.922351  936733.180805
   26847.4410  115177.020000  185676.915367  942338.120560
   26849.3770  115938.880000  187165.874988  950326.163524
   26851.3130  116452.700000  188294.792883  956388.089445
   26854.2130  116996.470000  189628.664678  963723.823484
   26856.1500  117504.200000  190727.494251  969682.479925
   26858.0840  118093.870000  191973.264837  976370.491853
   26860.0210  118800.500000  193373.009559  983995.196735
   26862.9240  119488.090000  194888.695079  992342.789109
   26864.8610  119967.620000  195911.332768  997793.332334
   26866.7990  120698.120000  197261.952223  1005091.189476
   26869.7050  121284.560000  198439.490545  1011500.570005
   26871.6410  121959.970000  199611.020671  1017819.197907
   26874.5470  122495.320000  200552.493445  1022666.821452
   26876.4860  123068.630000  201458.895344  1027394.605356
   26878.4240  123798.900000  202490.277877  1032974.594496
   26881.3320  124291.120000  203049.634869  1035665.460297
   26883.2730  125068.290000  204064.926043  1040976.202501
   26886.1840  125745.410000  204750.140169  1044439.239362
   26888.1210  126315.500000  205447.360020  1048010.459741
   26891.0310  126730.530000  205897.510102  1050159.694098
   26892.9730  127525.520000  207086.628612  1056444.391927
   26895.8830  128182.470000  208185.705372  1062181.929666
   26898.7950  128824.360000  209411.732547  1068787.733923
   26900.7380  129584.210000  210798.719058  1076241.050301
   26903.6520  130059.020000  211911.651039  1082187.189230
   26906.5640  130979.780000  213648.546769  1091663.938313
   26908.5060  131657.500000  214866.381505  1098185.282804
   26911.4220  132365.160000  216149.190686  1105053.320773
   26914.3380  133041.780000  217282.948479  1111094.021898
   26916.2790  133809.360000  218531.659856  1117670.514359
   26919.1970  134577.890000  219753.318836  1124115.338182
   26922.1150  135243.370000  220853.944008  1129954.444387
   26925.0310  135894.810000  222014.552291  1136228.735383
   26927.9510  136601.220000  223403.081075  1143756.933082
   26929.8960  137497.560000  225075.560775  1152772.479314
   26932.8160  138257.860000  226793.019308  1162043.988227
   26935.7360  139042.110000  228604.431575  1171911.126806
   26938.6560  139778.330000  230365.783950  1181598.439597
   26941.5800  140517.480000  232148.091591  1191345.350129
   26944.5020  141144.610000  233764.352568  1200148.487427
   26947.4240  142120.690000  235809.606237  1211370.601673
   26950.3480  142948.700000  237544.749492  1220855.381759
   26953.2700  143662.690000  238988.903322  1228760.382707
   26956.1930  144439.620000  240421.988685  1236314.017920
   26959.1190  145242.520000  241704.062837  1243258.577700
   26962.0470  146283.360000  243230.040113  1251373.044009
   26964.9750  147117.160000  244314.022704  1257073.118737
   26967.9000  147965.910000  245377.933917  1262581.368531
   26970.8280  148629.610000  246175.789499  1266538.505668
   26973.7560  149566.270000  247434.641455  1273231.546208
   26976.6860  150246.890000  248445.392865  1278496.522018
   26980.5900  151067.450000  249855.143972  1286107.283911
   26983.5210  152049.980000  251661.815085  1295857.843952
   26986.4530  152839.450000  253212.491618  1304227.282948
   26989.3870  153853.890000  255178.088026  1314983.879783
   26992.3160  154440.270000  256543.648480  1322219.204760
   26996.2290  155077.610000  258081.157983  1330786.102713
   26999.1620  156204.910000  260286.636273  1342801.619236
   27002.0980  156978.160000  261927.065065  1351682.088609
   27006.0100  157887.360000  263846.440039  1362262.592601
   27008.9470  158582.520000  265289.793471  1370055.855941
   27011.8850  159781.620000  267458.043671  1381810.269422
   27015.8010  160687.690000  269071.318082  1390662.411222
   27018.7380  161572.700000  270540.523363  1398545.289100
   27021.6780  162400.670000  271845.680268  1405376.550502
   27025.5980  163484.590000  273455.809599  1414257.638254
   27028.5390  164284.480000  274736.857908  1420958.267453
   27032.4590  165118.310000  276198.896938  1428932.937647
   27035.4020  165957.110000  277866.888723  1437985.106995
   27039.3260  167030.840000  280321.810390  1451583.438336
   27042.2700  167840.550000  282367.728030  1462802.245835
   27046.1930  168848.200000  285058.546767  1477838.145571
   27049.1390  169566.800000  286982.388418  1488456.341480
   27053.0660  170798.360000  289715.115393  1503787.311727
   27056.9960  171729.870000  291675.831358  1514565.713348
   27059.9430  172700.340000  293372.506238  1523732.435968
   27063.8730  173719.770000  294956.144830  1532398.882681
   27067.8050  174725.140000  296376.708973  1540059.468578
   27070.7540  175436.470000  297417.264286  1545466.496235
   27074.6890  176502.770000  298968.755209  1553892.061935
   27078.6230  177266.000000  300110.196633  1559982.261462
   27081.5740  178487.190000  302090.588386  1570794.676937
   27085.5120  179250.340000  303446.972794  1578131.571021
   27089.4490  180167.440000  305185.271804  1587606.858153
   27093.3910  181026.500000  306847.576064  1596864.230706
   27097.3320  181989.520000  308786.778965  1607455.869731
   27100.2870  183062.470000  310818.972500  1618649.859552
   27104.2290  183715.390000  312279.077326  1626609.826122
   27108.1740  184853.270000  314612.201878  1639534.723273
   27112.1170  185908.090000  316902.232601  1652352.504557
   27116.0640  186783.870000  319058.245225  1664277.997163
   27120.0120  187839.610000  321523.218515  1678080.333447
   27123.9590  188589.300000  323385.119938  1688456.259866
   27127.9080  189711.940000  325681.990644  1701319.518716
   27131.8590  190683.530000  327544.801062  1711644.430827
   27135.8130  191483.090000  328984.587068  1719403.834454
   27139.7640  192608.590000  330909.326101  1729944.141079
   27143.7190  193546.050000  332547.021670  1738992.616740
   27147.6740  194427.470000  334132.689698  1747773.880083
   27151.6310  195406.830000  336019.331636  1758043.273163
   27155.5880  196209.160000  337618.862365  1767101.005978
   27159.5470  197456.440000  340042.361689  1780237.752262
   27163.5060  198171.670000  341593.855811  1788952.398461
   27167.4670  199363.840000  344023.268836  1802526.006462
   27172.4220  200037.980000  345845.640060  1812924.467940
   27176.3850  201328.080000  348608.988113  1828301.945087
   27180.3500  201916.120000  350243.267706  1837420.497781
   27184.3160  202870.120000  352365.528953  1849234.541919
   27188.2810  203971.090000  354564.745462  1861574.600740
   27193.2440  204746.000000  356126.920838  1870432.911483
   27197.2130  205895.860000  358195.027272  1881806.703757
   27201.1840  206778.670000  359788.080982  1890618.293893
   27206.1480  207510.450000  361132.129061  1898250.401964
   27210.1230  208485.170000  362821.113169  1907603.290969
   27214.0980  209420.860000  364420.059331  1916305.152854
   27219.0680  210215.500000  365775.952756  1923885.263362
   27223.0450  211293.080000  367730.772679  1934952.533052
   27227.0230  212468.620000  369989.603602  1947675.534385
   27232.0000  213168.120000  371785.379203  1957954.823712
   27235.9800  214245.580000  374182.081233  1971499.159830
   27240.9570  215257.980000  376655.740762  1985455.456244
   27244.9430  216008.340000  378487.375408  1995918.686969
   27249.9240  217186.660000  381198.969368  2011430.557653
   27253.9100  218209.920000  383468.483131  2024227.520176
   27258.8960  218897.140000  385268.016605  2034438.704846
   27262.8850  219940.330000  387414.423681  2046663.084630
   27267.8730  220855.450000  389483.855486  2058422.959837
   27272.8630  221706.530000  391440.204890  2069604.427984
   27276.8550  222692.580000  393541.550869  2081420.048431
   27281.8500  223363.560000  395179.802622  2090776.606177
   27285.8440  224596.520000  397513.043731  2103922.519764
   27290.8420  225201.420000  398705.202018  2110743.009635
   27295.8400  226270.270000  400494.394328  2121063.238902
   27299.8400  227176.080000  402078.482480  2130136.411508
   27304.8420  227915.840000  403587.508582  2138648.439159
   27309.8440  229027.560000  405899.481184  2151880.834957
   27314.8520  229857.230000  407975.481018  2163910.059728
   27318.8550  230903.860000  410384.421330  2177684.278054
   27323.8630  231764.440000  412628.268355  2190791.364141
   27328.8770  232515.980000  414659.107038  2202496.467277
   27333.8890  233520.470000  416936.878242  2215667.162635
   27338.9040  234290.910000  418739.642434  2226142.060086
   27343.9180  235198.310000  420704.308002  2237573.347516
   27347.9340  236220.660000  422767.958973  2249160.845744
   27352.9530  237010.970000  424456.584883  2258948.519142
   27357.9730  237950.220000  426319.127811  2270009.265376
   27362.9980  238893.440000  428253.664792  2281174.440402
   27368.0230  239794.610000  430112.139953  2291976.822134
   27373.0510  240187.730000  431184.566039  2298282.137036
   27378.0780  240835.810000  432697.952370  2306946.147933
   27383.1070  241657.840000  434454.291560  2317433.822280
   27388.1410  242332.830000  436121.603615  2327167.430257
   27393.1740  243323.770000  438457.832149  2340897.409892
   27398.2130  244114.660000  440652.037307  2353687.515776
   27403.2500  244921.500000  442976.203120  2367377.428180
   27408.2910  245703.300000  445156.324038  2380187.417587
   27413.3320  246302.060000  446858.401327  2390382.726881
   27419.3870  247016.770000  448703.462218  2401476.964815
   27424.4300  247905.440000  450719.404601  2413033.583180
   27429.4790  248578.050000  452254.367152  2422370.247022
   27434.5270  249271.620000  453857.260899  2431879.624366
   27439.5820  250092.140000  455714.086675  2442810.769380
   27444.6330  250869.620000  457479.905773  2453237.750603
   27450.6990  251706.060000  459354.653889  2464638.883386
   27455.7560  252630.450000  461241.353311  2476046.586787
   27460.8180  253179.800000  462559.088752  2483885.403808
   27465.8790  254053.090000  464443.660808  2495045.541002
   27471.9530  254298.340000  465402.277587  2501090.572369
   27477.0200  255277.550000  467564.816772  2514001.497009
   27482.0880  256185.700000  469680.310167  2526666.874277
   27488.1700  256791.830000  471506.768240  2538126.416851
   27493.2420  257640.890000  473692.139571  2551267.608740
   27499.3300  257973.910000  475219.525290  2560515.426738
   27504.4040  259040.890000  477706.833686  2575436.274369
   27509.4820  259776.810000  479541.116471  2586326.063307
   27515.5780  260195.700000  480855.322574  2594801.865282
   27520.6620  261076.550000  482832.527388  2606591.894119
   27526.7600  261433.330000  483977.684283  2614025.890795
   27531.8480  262196.090000  485711.758738  2624546.396965
   27537.9510  262708.780000  487095.848696  2633281.110903
   27543.0410  263212.440000  488437.862497  2641294.092977
   27549.1540  263802.060000  489899.784716  2650866.506715
   27554.2460  264616.620000  491900.697366  2662867.587443
   27560.3630  265143.120000  493511.595805  2673269.023003
   27565.4610  265231.590000  494368.439857  2678735.326054
   27571.5820  266241.030000  496867.219449  2694162.909341
   27577.7050  266658.410000  498367.958170  2703824.891541
   27582.8110  267004.750000  499657.642303  2711941.691119
   27588.9380  267435.030000  501067.317503  2721167.944074
   27595.0700  268195.280000  503145.892052  2733981.284746
   27600.1800  268510.470000  504290.457988  2741335.275775
   27606.3160  269076.620000  505908.980038  2751775.921208
   27612.4550  269588.720000  507446.475521  2761555.089876
   27618.5960  270169.780000  508961.907683  2771636.381476
   27623.7190  270662.810000  510347.263395  2780464.843569
   27629.8610  271185.780000  511713.614089  2789518.058661
   27636.0120  271583.690000  512900.947809  2797526.022883
   27642.1660  271795.560000  513799.168347  2803641.721850
   27647.2930  272841.410000  516104.420664  2817978.634508
   27653.4510  273262.190000  517514.548208  2827354.187417
   27659.6110  273842.940000  519308.713673  2838966.993659
   27665.7710  274254.620000  520833.725008  2849064.133020
   27671.9390  274549.250000  522050.779548  2857298.457087
   27678.1070  275087.870000  523656.782192  2867868.855616
   27684.2770  275611.410000  525262.710751  2878332.864022
   27690.4510  276267.940000  527106.645739  2890315.347396
   27696.6290  276590.410000  528435.443606  2899108.768760
   27702.8090  276996.810000  529815.265367  2908650.159623
   27708.9900  277266.190000  531056.075623  2917080.655022
   27715.1740  277790.500000  532628.739387  2927475.224671
   27721.3630  278281.780000  534115.441121  2937411.403451
   27727.5550  278573.030000  535192.048266  2945075.260785
   27733.7460  279239.220000  536898.645067  2956493.846174
   27739.9410  279366.340000  537682.193450  2962315.980196
   27746.1410  279497.470000  538420.708525  2968031.568969
   27752.3440  279890.500000  539696.128005  2976707.953468
   27758.5470  280293.500000  541012.545727  2985905.913706
   27764.7540  280706.470000  542495.956875  2995878.029283
   27770.9650  280978.370000  543841.253734  3005341.220031
   27778.2130  280795.250000  544449.480193  3010604.463602
   27784.4300  280489.060000  544486.757946  3012436.872581
   27790.6460  280107.840000  544287.920178  3012812.695891
   27796.8690  280750.590000  546186.064480  3025321.649212
   27803.0940  281196.250000  547700.182030  3035802.319202
   27810.3590  281123.910000  548314.283721  3041142.764056
   27816.5880  280317.500000  547174.240083  3035976.169964
   27822.8220  280661.030000  548355.194561  3044452.138366
   27829.0590  282349.530000  552211.139102  3068755.769176
   27836.3380  283423.000000  554879.005204  3086250.125545

