# XDI/1.0
# Column.1: energy eV
# Column.2: i0
# Column.3: itrans
# Column.4: irefer
# Beamline.name: SSRL 4-3
# Detector.I0: Ar 30cm
# Detector.I1: Kr 15cm
# Detector.I2: Kr 15cm
# Element.edge: K
# Element.symbol: Cd
# Mono.d_spacing: 1.92009
# Mono.name: Si(220)
# Mono.notes: unfocused, detuned 20% at E=27800eV
# Sample.formula: CdS
# Sample.name: CdS greenockite
# Sample.prep: powder, mixed with B(OH)3
# Sample.reference: Cd foil
# Sample.temperature: 10K
# Scan.start_time: 1995-06-16 15:35:58
# ///
#    Note: mono d_spacing is nominal!
#     exafs to K17
#     368  E XMU XMUR I0
#-------------
#   energy   i0   itrans  irefer
   26484.9590  46660.000000  106213.791792  618957.101016
   26495.3140  46609.000000  106126.794684  619185.902992
   26504.7320  46635.000000  106145.801217  620480.781883
   26515.1040  46741.000000  106448.800581  623093.834009
   26524.5390  46701.000000  106393.797147  623628.773903
   26534.9240  46778.000000  106622.793004  625700.177652
   26545.3160  46916.000000  106911.797133  628617.000274
   26554.7730  46693.000000  106544.800696  626612.019549
   26565.1820  46538.000000  106411.801080  625603.311894
   26574.6520  46796.000000  106849.802052  630087.141200
   26585.0780  46995.000000  107247.796600  633633.691037
   26594.5630  46840.000000  106989.793143  632414.123796
   26605.0040  46869.000000  107125.792640  633788.800118
   26615.4510  46885.000000  107188.792422  634792.830749
   26624.9590  46868.000000  107127.792023  635159.685055
   26635.4220  47026.000000  107389.792993  637658.670041
   26644.9430  46885.000000  107072.801920  636009.814530
   26655.4240  47018.000000  107243.795693  637583.792184
   26664.9590  46861.000000  106740.800778  634599.742267
   26675.4550  46983.000000  106665.794886  633834.281201
   26685.0060  46774.000000  105591.797492  625900.049483
   26685.9630  46945.000000  105876.794675  627841.096695
   26687.8730  46838.000000  105469.798234  624901.251260
   26688.8260  46990.000000  105636.801870  626020.309031
   26689.7830  46917.000000  105392.795842  624099.170685
   26691.6930  47025.000000  105241.801621  622925.902544
   26692.6520  46848.000000  104772.791841  619240.123022
   26693.6070  46837.000000  104534.795665  617467.841656
   26694.5610  46851.000000  104337.793814  615879.700567
   26696.4750  46989.000000  103928.798178  612667.290066
   26697.4320  46892.000000  103413.796873  608662.778956
   26698.3870  46894.000000  103015.795980  605565.259769
   26700.2990  46898.000000  101802.792056  596122.707308
   26701.2560  46926.000000  101169.799950  591165.074835
   26702.2130  46970.000000  100442.798875  585645.934738
   26704.1270  46835.000000  97932.795836  566535.920747
   26705.0820  46953.000000  96892.798900  558791.938806
   26706.0390  46797.000000  95333.798194  547351.065557
   26707.9530  46901.000000  92181.798440  524790.270066
   26708.9100  46869.000000  90586.797194  513597.803708
   26709.8670  46839.000000  89006.792694  502646.776202
   26710.8240  46753.000000  87208.798391  490528.913764
   26712.7380  46839.000000  83735.798755  467561.826521
   26713.6950  46809.000000  82202.794031  457702.903872
   26714.6520  46740.000000  80480.798588  446694.818646
   26716.5700  46790.000000  77263.797240  426488.969977
   26717.5250  46783.000000  76037.800305  418885.071138
   26718.4820  46800.000000  74783.793938  411249.136723
   26720.4000  46792.000000  72549.794597  397632.077021
   26721.3570  46828.000000  71883.799153  393664.063392
   26722.3160  46708.000000  71148.799829  389230.010774
   26723.2750  46791.000000  70888.794658  387716.877747
   26725.1890  46692.000000  70474.796101  385279.923372
   26726.1480  46744.000000  70572.800290  385895.190446
   26727.1070  46735.000000  70633.797539  386302.116529
   26729.0250  46661.000000  70725.797840  386862.138383
   26729.9800  46740.000000  70908.798922  388069.919820
   26730.9390  46661.000000  70879.793860  387887.131069
   26732.8570  46662.000000  71031.797503  389018.005407
   26733.8160  46672.000000  71145.794347  389613.886120
   26734.7750  46707.000000  71272.798462  390472.188446
   26736.6930  46608.000000  71321.797802  390900.088898
   26737.6520  46658.000000  71489.794297  391887.850192
   26738.6110  46687.000000  71630.800305  392769.196595
   26739.5720  46629.000000  71640.794347  392891.175017
   26741.4880  46653.000000  71877.798492  394392.037609
   26742.4490  46587.000000  71868.799837  394365.140338
   26743.4080  46642.000000  72036.794469  395400.835099
   26745.3260  46615.000000  72173.798455  396394.163169
   26746.2870  46652.000000  72309.795120  397162.135401
   26747.2480  46683.000000  72413.798823  397882.156683
   26749.1660  46586.000000  72386.800324  397766.825018
   26750.1270  93255.000000  144942.596291  796603.270561
   26751.0860  93417.977000  145169.583432  798149.241947
   26752.0470  93331.906000  145013.511600  797260.855140
   26753.0080  93367.633000  144984.254000  797144.640433
   26753.9670  93368.430000  144863.045100  796502.907375
   26754.9260  93394.172000  144720.796529  795700.091201
   26755.8890  93427.875000  144566.520087  794856.621636
   26756.8480  93540.531000  144478.170798  794418.522658
   26757.8090  93542.141000  144214.797956  792847.456544
   26758.7710  93665.711000  144063.370799  792043.470867
   26759.7300  93805.227000  143950.901468  791456.785347
   26760.6890  93838.703000  143694.408708  789887.778510
   26761.6500  93945.125000  143534.846032  788940.444081
   26762.6130  94010.508000  143325.255758  787713.593099
   26763.5740  94110.844000  143219.608936  787062.120867
   26764.5350  94239.133000  143136.915028  786613.970099
   26765.4960  94429.375000  143184.183870  786884.754002
   26767.4160  94516.578000  142905.410689  785260.058541
   26768.3790  94665.727000  142971.573443  785682.544459
   26769.3420  94784.836000  143037.715274  785963.488186
   26770.3030  95000.891000  143256.806672  787268.902511
   26771.2640  95251.906000  143552.859220  789083.641163
   26773.1880  95136.875000  143352.860120  787948.036482
   26774.1480  95401.797000  143771.813572  790314.063153
   26775.1090  95619.680000  144136.714671  792400.746273
   26777.0330  95861.508000  144569.596009  795203.474666
   26777.9960  96240.289000  145207.401349  798898.636345
   26778.9590  96338.031000  145444.193464  800243.025140
   26780.8810  96435.727000  145814.919809  802576.473857
   26781.8440  96749.375000  146425.603267  806032.022560
   26782.8070  97012.977000  146954.270458  809145.257665
   26784.7320  97115.531000  147530.865426  812563.781161
   26785.6950  97491.039000  148280.428204  816981.349106
   26787.6190  97744.508000  149181.936759  822370.984959
   26788.5820  97922.922000  149722.391941  825465.821412
   26790.5080  98133.297000  150643.832872  831007.922033
   26791.4710  98521.625000  151516.202622  836036.746472
   26793.3980  99002.906000  152791.523885  843759.417191
   26794.3590  99319.141000  153475.832524  847810.472830
   26796.2870  99619.328000  154373.084929  853175.526643
   26798.2130  99848.477000  154990.264748  856912.066258
   26799.1780  100288.570000  155738.423950  861173.359068
   26801.1040  100599.630000  156306.555719  864458.396595
   26803.0310  100758.630000  156486.611176  865603.935576
   26803.9960  101190.590000  157102.627218  869074.861556
   26805.9260  101399.510000  157217.619775  869707.509198
   26807.8540  101979.380000  157785.550533  872998.498568
   26809.7810  102090.200000  157636.450603  871978.211020
   26810.7440  102466.980000  158060.283332  874234.372390
   26812.6760  102812.700000  158162.073077  874782.501939
   26814.6040  103147.390000  158248.840857  875223.022065
   26816.5330  103695.030000  158684.568737  877648.689207
   26818.4610  104131.630000  158990.232884  879390.252066
   26820.3930  104582.170000  159373.846495  881624.896569
   26822.3240  104999.670000  159796.416360  884000.481478
   26823.2870  105529.130000  160537.976542  888123.250126
   26825.2190  105903.540000  160983.452437  890760.488932
   26827.1500  106356.910000  161621.909208  894313.794081
   26829.0820  106714.220000  162158.300270  897371.576866
   26831.0120  107167.490000  162846.646301  901382.718039
   26832.9450  107631.720000  163610.973945  905800.877450
   26834.8770  108077.910000  164364.242502  910222.391518
   26836.8110  108564.040000  165228.477679  915266.453851
   26839.7090  108955.120000  166071.638804  920237.928296
   26841.6410  109405.170000  166925.774016  925183.639170
   26843.5760  110083.170000  168136.873516  932268.041030
   26845.5080  110439.120000  168928.934219  936804.034450
   26847.4410  110941.020000  169955.919904  942753.745181
   26849.3770  111528.880000  171111.873027  949523.776312
   26851.3130  112018.700000  172124.787356  955508.559372
   26854.2130  112642.470000  173502.658222  963638.207204
   26856.1500  113042.200000  174392.499017  968859.397094
   26858.0840  113722.870000  175695.278775  976474.976115
   26860.0210  114356.500000  176918.993130  983661.625982
   26862.9240  114938.090000  178203.692438  991234.598699
   26864.8610  115488.620000  179249.339911  997344.051276
   26866.7990  116080.120000  180330.944323  1003655.127107
   26869.7050  116765.560000  181565.498866  1010901.174403
   26871.6410  117281.970000  182422.009304  1015911.720818
   26874.5470  118059.320000  183644.479150  1022995.850783
   26876.4860  118513.630000  184301.900213  1026769.941959
   26878.4240  119312.900000  185395.291065  1033078.288770
   26881.3320  119841.120000  185931.637442  1036024.494127
   26883.2730  120646.290000  186903.929994  1041662.987498
   26886.1840  121207.410000  187392.155708  1044427.858233
   26888.1210  121894.500000  188237.359407  1049259.248451
   26891.0310  122554.530000  189020.518715  1053799.595362
   26892.9730  123021.520000  189684.639186  1057523.253092
   26895.8830  123689.470000  190766.706675  1063751.670710
   26898.7950  124366.360000  191975.743043  1070932.481235
   26900.7380  125068.210000  193228.720676  1078151.811419
   26903.6520  125664.020000  194440.642698  1085224.261833
   26906.5640  126420.780000  195841.540799  1093517.525466
   26908.5060  126990.490000  196839.386995  1099210.091029
   26911.4220  127779.160000  198164.176498  1106899.188601
   26914.3380  128426.790000  199162.946112  1112780.719508
   26916.2790  128978.360000  200027.656273  1117722.753206
   26919.1970  129678.890000  201076.336162  1123825.329818
   26922.1150  130580.370000  202476.939139  1131974.802530
   26925.0310  131036.820000  203350.553125  1136928.210563
   26927.9510  131882.220000  204875.084917  1145981.153351
   26929.8960  132556.560000  206119.566903  1153261.647689
   26932.8160  133306.860000  207753.023821  1162816.070055
   26935.7360  134203.110000  209614.430658  1173952.804091
   26938.6560  134914.330000  211270.791861  1183821.074373
   26941.5800  135761.480000  213111.077940  1194702.551445
   26944.5020  136132.610000  214199.363008  1201221.439306
   26947.4240  137194.690000  216258.599592  1213379.732034
   26950.3480  138086.700000  217976.759379  1223642.626655
   26953.2700  138744.690000  219237.908777  1231007.823571
   26956.1930  139698.620000  220805.999990  1240277.579401
   26959.1190  140390.520000  221838.062599  1246322.716657
   26962.0470  141327.360000  223122.043387  1253669.213766
   26964.9750  142368.160000  224436.020173  1261430.506371
   26967.9000  143074.910000  225206.923427  1265788.641917
   26970.8280  143954.610000  226253.791750  1271773.092457
   26973.7560  144681.270000  227178.621075  1277109.480633
   26976.6860  145490.890000  228325.415641  1283768.116054
   26980.5900  146166.450000  229449.128086  1290473.314876
   26983.5210  147002.980000  230935.825141  1299237.533488
   26986.4530  148075.450000  232862.474512  1310503.955613
   26989.3870  148881.890000  234421.085073  1319703.022141
   26992.3160  149904.270000  236332.636741  1331088.477126
   26996.2290  150466.610000  237687.146659  1339168.662248
   26999.1620  151563.910000  239703.629742  1351175.568752
   27002.0980  152351.160000  241249.078241  1360311.395022
   27006.0100  153348.360000  243185.443924  1371971.857451
   27008.9470  154041.520000  244553.787982  1380046.228447
   27011.8850  155059.620000  246291.055285  1390252.950191
   27015.8010  155871.690000  247679.325917  1398497.701104
   27018.7380  156707.700000  248970.517698  1406030.108779
   27021.6780  157712.670000  250459.675912  1414691.737751
   27025.5980  158590.590000  251674.799459  1421930.558931
   27028.5390  159559.480000  253155.865466  1430531.550855
   27032.4590  160384.310000  254553.892696  1438973.905131
   27035.4020  161183.110000  256071.870164  1448029.792852
   27039.3260  162107.840000  258217.794302  1460890.401393
   27042.2700  163163.550000  260545.698522  1474774.347016
   27046.1930  163947.200000  262737.549889  1488060.130364
   27049.1390  164975.800000  265018.383818  1501691.166713
   27053.0660  166009.360000  267282.131369  1515377.364354
   27056.9960  166810.870000  268855.848199  1524854.623534
   27059.9430  167948.340000  270697.492110  1535720.501707
   27063.8730  168639.770000  271670.137754  1541546.791669
   27067.8050  169545.140000  272864.709854  1548546.617732
   27070.7540  170521.470000  274212.242048  1556522.449044
   27074.6890  171762.770000  275929.743450  1566697.658091
   27078.6230  172571.000000  277069.186565  1573559.053758
   27081.5740  173495.190000  278502.594600  1581818.440059
   27085.5120  174404.340000  280001.958136  1590926.128639
   27089.4490  175273.440000  281574.275458  1600176.586586
   27093.3910  176482.500000  283689.554217  1612989.423901
   27097.3320  177405.520000  285425.795752  1623437.486664
   27100.2870  178373.470000  287191.976075  1633906.248517
   27104.2290  179057.390000  288620.093793  1642607.617861
   27108.1740  180019.270000  290573.193264  1654340.138938
   27112.1170  181142.090000  292877.241700  1668185.104892
   27116.0640  183982.870000  297699.252008  1698109.335325
   27120.0120  182685.610000  296693.226412  1691157.859485
   27123.9590  182694.300000  297374.136302  1695271.296961
   27127.9080  183294.940000  298795.008942  1703555.385679
   27131.8590  184158.530000  300340.809868  1712904.698917
   27135.8130  185218.090000  302053.572984  1723269.083138
   27139.7640  186435.590000  303970.335941  1734855.003645
   27143.7190  187314.050000  305421.051092  1743560.071355
   27147.6740  188216.470000  306957.694944  1752840.574853
   27151.6310  189387.830000  309020.316258  1765312.527581
   27155.5880  190017.160000  310219.863713  1772695.030866
   27159.5470  191314.440000  312577.380815  1786782.967684
   27163.5060  191870.670000  313785.851395  1794144.797238
   27167.4670  193355.840000  316530.284266  1810808.884401
   27172.4220  194188.980000  318499.660356  1822888.133115
   27176.3850  195132.080000  320593.018189  1835509.654156
   27180.3500  196202.120000  322804.266146  1849075.664452
   27184.3160  197334.120000  325061.512189  1862897.653490
   27188.2810  198222.090000  326808.727565  1873379.070470
   27193.2440  199263.000000  328691.907354  1884888.336525
   27197.2130  199943.860000  329843.047322  1891843.306381
   27201.1840  201144.670000  331824.097070  1903915.816606
   27206.1480  202018.450000  333323.113340  1913144.169923
   27210.1230  202902.170000  334783.127537  1921879.594638
   27214.0980  203774.860000  336138.056141  1930122.896757
   27219.0680  204680.500000  337600.933144  1939087.007847
   27223.0450  205931.080000  339729.784346  1952132.316375
   27227.0230  206871.620000  341534.571323  1963091.700453
   27232.0000  207814.120000  343623.378033  1975953.264202
   27235.9800  208733.580000  345634.100315  1988288.906690
   27240.9570  209779.980000  347973.757412  2002815.194780
   27244.9430  211195.340000  350730.382474  2019769.726661
   27249.9240  212062.660000  352802.989254  2032617.798205
   27253.9100  213027.920000  354864.503712  2045235.124005
   27258.8960  214061.140000  357014.991949  2058705.724298
   27262.8850  215170.330000  359175.435370  2071872.251993
   27267.8730  215905.450000  360791.843191  2081993.610759
   27272.8630  216759.530000  362632.230799  2093354.709735
   27276.8550  217877.580000  364784.528147  2106680.669620
   27281.8500  218955.560000  366928.823141  2119986.260716
   27285.8440  219732.520000  368452.052733  2129391.609294
   27290.8420  220897.420000  370425.198463  2141657.906774
   27295.8400  221819.270000  371880.382898  2150776.569913
   27299.8400  222774.080000  373458.453868  2160467.178778
   27304.8420  223658.840000  375058.477999  2170491.579352
   27309.8440  224731.560000  377183.506351  2183675.670387
   27314.8520  225862.230000  379646.444959  2198941.553698
   27318.8550  227048.860000  382116.423836  2214317.119189
   27323.8630  227743.440000  384025.298609  2226246.877929
   27328.8770  228831.980000  386406.074305  2241287.647817
   27333.8890  229684.470000  388328.875351  2253429.591287
   27338.9040  230746.910000  390467.633928  2266837.760401
   27343.9180  231659.310000  392300.293355  2278497.699383
   27347.9340  232654.660000  394147.974339  2289954.914076
   27352.9530  233530.970000  395862.568647  2300723.924432
   27357.9730  234486.220000  397680.143581  2312147.494216
   27362.9980  235503.440000  399590.678957  2324268.675964
   27368.0230  236244.610000  401048.132509  2333572.073381
   27373.0510  237337.730000  403106.561606  2346569.956353
   27378.0780  238373.810000  405086.924217  2359105.195737
   27383.1070  238961.840000  406424.294362  2367544.625076
   27388.1410  239981.830000  408523.611101  2380849.681872
   27393.1740  240816.770000  410481.866553  2393260.051768
   27398.2130  241700.660000  412689.056003  2407348.993555
   27403.2500  242559.500000  414973.200529  2421762.696784
   27408.2910  243353.300000  417069.300776  2435115.327706
   27413.3320  244264.060000  419122.421740  2448284.987301
   27419.3870  245005.770000  420877.434267  2459719.655584
   27424.4300  245930.440000  422801.428104  2471870.997453
   27429.4790  246505.050000  424093.343212  2480262.251370
   27434.5270  247289.620000  425764.254686  2490998.219116
   27439.5820  248247.140000  427670.090694  2503199.724297
   27444.6330  249108.620000  429460.910760  2514679.719331
   27450.6990  249479.060000  430567.662674  2521992.351514
   27455.7560  250414.450000  432396.350327  2533863.888192
   27460.8180  251592.800000  434551.084065  2547805.062201
   27465.8790  252775.090000  436761.692832  2561949.371713
   27471.9530  253423.340000  438265.272045  2571964.726877
   27477.0200  254276.550000  440119.796336  2584119.097633
   27482.0880  255067.700000  441985.289619  2596136.351457
   27488.1700  255505.830000  443498.769572  2606117.975515
   27493.2420  256244.890000  445341.137139  2618164.002732
   27499.3300  256937.910000  447276.539702  2630959.954736
   27504.4040  257883.890000  449426.823290  2644853.737056
   27509.4820  258642.810000  451260.102803  2656750.126534
   27515.5780  259412.700000  453054.319921  2668770.156727
   27520.6620  260319.550000  455001.545126  2681291.377775
   27526.7600  260938.330000  456446.682016  2691128.485270
   27531.8480  261856.080000  458328.804300  2703468.453135
   27537.9510  262606.780000  459990.841854  2714612.727180
   27543.0410  263258.440000  461428.868643  2724210.420809
   27549.1540  264072.060000  463286.809121  2736448.854917
   27554.2460  264617.620000  464642.708092  2745714.854285
   27560.3630  265155.120000  466245.590351  2756424.128910
   27565.4610  266210.590000  468616.429973  2771834.314137
   27571.5820  266646.030000  470077.205627  2781948.744965
   27577.7050  267238.410000  471801.988338  2793519.030594
   27582.8110  267703.750000  473192.678016  2802795.689717
   27588.9380  268459.030000  475064.324018  2815542.427531
   27595.0700  269177.280000  476934.896378  2828149.800230
   27600.1800  269997.470000  478833.476424  2840782.690931
   27606.3160  270493.620000  480245.970915  2850627.464624
   27612.4550  271044.720000  481766.485007  2861031.564631
   27618.5960  271651.780000  483278.902808  2871394.058596
   27623.7190  272419.810000  485000.293245  2883025.364538
   27629.8610  273150.780000  486615.629873  2894120.517988
   27636.0120  273526.690000  487678.951918  2901744.259443
   27642.1660  273748.560000  488518.196651  2908203.224508
   27647.2930  274582.410000  490411.401859  2920834.477709
   27653.4510  274830.190000  491532.575952  2928779.950164
   27659.6110  275421.940000  493241.715521  2940542.446900
   27665.7710  275994.620000  494914.723898  2952272.443952
   27671.9390  276102.250000  495783.762084  2958796.474327
   27678.1070  277141.870000  498123.750503  2974819.194396
   27684.2770  277714.410000  499789.736760  2986401.660127
   27690.4510  278069.940000  501067.621376  2995582.746615
   27696.6290  278455.410000  502415.486053  3005191.099614
   27702.8090  278824.810000  503689.276693  3014482.834039
   27708.9900  279295.190000  505155.019349  3024966.666839
   27715.1740  279962.500000  506892.761596  3037027.334893
   27721.3630  280301.780000  508040.418551  3045672.496562
   27727.5550  280919.030000  509692.079832  3057212.335753
   27733.7460  281408.220000  511052.668999  3066986.171624
   27739.9410  282028.340000  512569.167224  3077948.745398
   27746.1410  283123.470000  514942.679357  3094168.816699
   27752.3440  283430.500000  515996.170118  3102179.919559
   27758.5470  283624.500000  516910.569682  3109215.990194
   27764.7540  284073.470000  518355.915506  3119640.662478
   27770.9650  284413.370000  519720.261451  3129794.755545
   27778.2130  284160.250000  520214.506799  3134406.871864
   27784.4300  283423.060000  519703.726793  3132015.146154
   27790.6460  283249.840000  519748.912839  3133988.755604
   27796.8690  284243.590000  522126.075050  3150542.949240
   27803.0940  285280.250000  524565.200771  3167584.947950
   27810.3590  284744.910000  524299.259301  3167673.313373
   27816.5880  284128.500000  523613.229750  3164813.163033
   27822.8220  284182.030000  524246.232628  3170192.160677
   27829.0590  286195.530000  528407.120715  3198102.833848
   27836.3380  287849.000000  531900.976216  3221944.496203

