#XDI/1.1  GSE/2.0
# Column.1: energy eV
# Column.2: itrans
# Column.3: i0
# Element.symbol:  Au
# Element.edge:  L1
# Mono.d_spacing:  3.13477
# Mono.name: Si 111
# Sample.formula: Au
# Sample.name: Au
# Sample.prep: metal foil
# Sample.temperature: room temperature
# Facility.Name:  APS
# Beamline.Name:  13-ID-E
# Beamline.xray_source:  3.6cm undulator
# Beamline.Storage_Ring_Current: 102.0
# Beamline.I0: He,  20 cm
# Beamline.I1: N2,  10 cm
# Scan.start_time: 2016-07-05 18:29:20
# Scan.end_time: 2016-07-05 18:36:26
# ScanParameters.Start: Scan.Member: Value
# ScanParameters.ScanType: xafs
# ScanParameters.E0: 14353.000
# ScanParameters.Legend:  Start, Stop, Step, K-space, Time
# ScanParameters.Region1:   -100.000,   -20.000,     5.000  False  0.50
# ScanParameters.Region2:    -20.000,    30.000,     0.200  False  0.50
# ScanParameters.Region3:      2.806,    13.000,     0.050  True  0.50
# ScanParameters.End: here
#-------------------------
#  energy  itrans  i0
   14253.000     96671.15     72562.45
   14258.000    101725.15     76274.45
   14263.000    105949.15     79344.45
   14268.000    109565.15     81973.45
   14273.000    105902.15     79221.45
   14278.000    102155.15     76394.45
   14283.000    104094.15     77827.45
   14288.000    104799.15     78334.45
   14293.000    103043.15     77007.45
   14298.000    104388.15     78000.45
   14303.000    104970.15     78455.45
   14308.000    106177.15     79335.45
   14313.000    106468.15     79533.45
   14318.000    107588.15     80412.45
   14323.000    108032.15     80789.45
   14328.000    109018.15     81648.45
   14333.000    108832.15     81682.45
   14333.200    107951.15     81050.45
   14333.400    107924.15     81025.45
   14333.600    107843.15     80989.45
   14333.800    108027.15     81115.45
   14334.000    107956.15     81087.45
   14334.200    108165.15     81255.45
   14334.400    107868.15     81021.45
   14334.600    107597.15     80870.45
   14334.800    107616.15     80911.45
   14335.000    107624.15     80923.45
   14335.200    107649.15     80948.45
   14335.400    107857.15     81086.45
   14335.600    107400.15     80811.45
   14335.800    107474.15     80850.45
   14336.000    107612.15     80961.45
   14336.200    107861.15     81166.45
   14336.400    107705.15     81059.45
   14336.600    107769.15     81139.45
   14336.800    107933.15     81270.45
   14337.000    107885.15     81262.45
   14337.200    108008.15     81360.45
   14337.400    107692.15     81148.45
   14337.600    107898.15     81342.45
   14337.800    107481.15     81049.45
   14338.000    107328.15     80943.45
   14338.200    107461.15     81081.45
   14338.400    107473.15     81105.45
   14338.600    107492.15     81113.45
   14338.800    107752.15     81323.45
   14339.000    107849.15     81378.45
   14339.200    107700.15     81227.45
   14339.400    107683.15     81185.45
   14339.600    107621.15     81130.45
   14339.800    107569.15     81058.45
   14340.000    104794.15     78963.45
   14340.200    107946.15     81345.45
   14340.400    107982.15     81381.45
   14340.600    108112.15     81461.45
   14340.800    108169.15     81574.45
   14341.000    108465.15     81798.45
   14341.200    108481.15     81852.45
   14341.400    108535.15     81900.45
   14341.600    108039.15     81631.45
   14341.800    107729.15     81477.45
   14342.000    107494.15     81336.45
   14342.200    107239.15     81247.45
   14342.400    106941.15     81077.45
   14342.600    107001.15     81182.45
   14342.800    106796.15     81147.45
   14343.000    106880.15     81301.45
   14343.200    106934.15     81403.45
   14343.400    107164.15     81618.45
   14343.600    106447.15     81182.45
   14343.800    105912.15     80829.45
   14344.000    105890.15     80915.45
   14344.200    105682.15     80780.45
   14344.400    105844.15     80970.45
   14344.600    105838.15     81006.45
   14344.800    105702.15     80946.45
   14345.000    105991.15     81228.45
   14345.200    105830.15     81174.45
   14345.400    105806.15     81232.45
   14345.600    105754.15     81267.45
   14345.800    105807.15     81350.45
   14346.000    105568.15     81269.45
   14346.200    105360.15     81190.45
   14346.400    105318.15     81234.45
   14346.600    105423.15     81384.45
   14346.800    105317.15     81386.45
   14347.000    104692.15     80998.45
   14347.200    104351.15     80860.45
   14347.400    104171.15     80785.45
   14347.600    103953.15     80761.45
   14347.800    103927.15     80811.45
   14348.000    103921.15     80912.45
   14348.200    103716.15     80885.45
   14348.400    103479.15     80797.45
   14348.600    103081.15     80629.45
   14348.800    103009.15     80691.45
   14349.000    102947.15     80780.45
   14349.200    102757.15     80730.45
   14349.400    102790.15     80929.45
   14349.600    102565.15     80869.45
   14349.800    102179.15     80742.45
   14350.000    102097.15     80825.45
   14350.200    101616.15     80631.45
   14350.400    101535.15     80728.45
   14350.600    101056.15     80540.45
   14350.800    100875.15     80563.45
   14351.000    100840.15     80729.45
   14351.200    100754.15     80832.45
   14351.400    100575.15     80923.45
   14351.600    100168.15     80769.45
   14351.800     99708.15     80627.45
   14352.000     99526.15     80675.45
   14352.200     99354.15     80769.45
   14352.400     99324.15     80982.45
   14352.600     99142.15     81028.45
   14352.800     98913.15     81110.45
   14353.000     98342.15     80882.45
   14353.200     97788.15     80706.45
   14353.400     97093.15     80344.45
   14353.600     96715.15     80283.45
   14353.800     96255.15     80136.45
   14354.000     96150.15     80302.45
   14354.200     96348.15     80760.45
   14354.400     96040.15     80729.45
   14354.600     95703.15     80705.45
   14354.800     95410.15     80705.45
   14355.000     94746.15     80395.45
   14355.200     94442.15     80430.45
   14355.400     94376.15     80627.45
   14355.600     93769.15     80311.45
   14355.800     93425.15     80307.45
   14356.000     93405.15     80556.45
   14356.200     93088.15     80533.45
   14356.400     92496.15     80287.45
   14356.600     92331.15     80430.45
   14356.800     92409.15     80743.45
   14357.000     91858.15     80531.45
   14357.200     91197.15     80189.45
   14357.400     90920.15     80233.45
   14357.600     90424.15     80045.45
   14357.800     89791.15     79759.45
   14358.000     89432.15     79703.45
   14358.200     88876.15     79461.45
   14358.400     88810.15     79675.45
   14358.600     88672.15     79814.45
   14358.800     88475.15     79926.45
   14359.000     87939.15     79694.45
   14359.200     87556.15     79633.45
   14359.400     87365.15     79711.45
   14359.600     87245.15     79913.45
   14359.800     87029.15     79949.45
   14360.000     86560.15     79810.45
   14360.200     86090.15     79664.45
   14360.400     85844.15     79692.45
   14360.600     85537.15     79647.45
   14360.800     85082.15     79496.45
   14361.000     84647.15     79366.45
   14361.200     84308.15     79269.45
   14361.400     84216.15     79462.45
   14361.600     84087.15     79556.45
   14361.800     83653.15     79393.45
   14362.000     83194.15     79195.45
   14362.200     82893.15     79162.45
   14362.400     82143.15     78673.45
   14362.600     81871.15     78606.45
   14362.800     81779.15     78756.45
   14363.000     81532.15     78700.45
   14363.200     81190.15     78564.45
   14363.400     80857.15     78425.45
   14363.600     80968.15     78735.45
   14363.800     80974.15     78910.45
   14364.000     80491.15     78594.45
   14364.200     79982.15     78232.45
   14364.400     79834.15     78228.45
   14364.600     79523.15     78062.45
   14364.800     79019.15     77646.45
   14365.000     78988.15     77768.45
   14365.200     78813.15     77695.45
   14365.400     78805.15     77740.45
   14365.600     78846.15     77885.45
   14365.800     78750.15     77831.45
   14366.000     78907.15     78097.45
   14366.200     78805.15     77989.45
   14366.400     78658.15     77904.45
   14366.600     78710.15     77985.45
   14366.800     78687.15     78005.45
   14367.000     78355.15     77667.45
   14367.200     78442.15     77764.45
   14367.400     78181.15     77545.45
   14367.600     77915.15     77264.45
   14367.800     78450.15     77808.45
   14368.000     78640.15     77948.45
   14368.200     78630.15     77916.45
   14368.400     78508.15     77780.45
   14368.600     78541.15     77779.45
   14368.800     78827.15     78030.45
   14369.000     78740.15     77947.45
   14369.200     78670.15     77823.45
   14369.400     78156.15     77290.45
   14369.600     78050.15     77116.45
   14369.800     78174.15     77175.45
   14370.000     78229.15     77220.45
   14370.200     78483.15     77387.45
   14370.400     78324.15     77215.45
   14370.600     78196.15     77035.45
   14370.800     78540.15     77322.45
   14371.000     78766.15     77480.45
   14371.200     78424.15     77053.45
   14371.400     78255.15     76832.45
   14371.600     78392.15     76883.45
   14371.800     78622.15     77062.45
   14372.000     78947.15     77309.45
   14372.200     79080.15     77345.45
   14372.400     79378.15     77571.45
   14372.600     79093.15     77219.45
   14372.800     79085.15     77130.45
   14373.000     79008.15     76992.45
   14373.200     79009.15     76902.45
   14373.400     79371.15     77172.45
   14373.600     79639.15     77374.45
   14373.800     79459.15     77121.45
   14374.000     79666.15     77243.45
   14374.200     79732.15     77196.45
   14374.400     79625.15     77045.45
   14374.600     79583.15     76922.45
   14374.800     79829.15     77082.45
   14375.000     79535.15     76721.45
   14375.200     79200.15     76359.45
   14375.400     79414.15     76479.45
   14375.600     79384.15     76381.45
   14375.800     79542.15     76476.45
   14376.000     79667.15     76541.45
   14376.200     79861.15     76674.45
   14376.400     79971.15     76719.45
   14376.600     80233.15     76966.45
   14376.800     80172.15     76830.45
   14377.000     80358.15     76974.45
   14377.200     80169.15     76747.45
   14377.400     80242.15     76793.45
   14377.600     79931.15     76471.45
   14377.800     79958.15     76486.45
   14378.000     79959.15     76469.45
   14378.200     80069.15     76548.45
   14378.400     80247.15     76706.45
   14378.600     80491.15     76921.45
   14378.800     80475.15     76949.45
   14379.000     80358.15     76829.45
   14379.200     80315.15     76793.45
   14379.400     80078.15     76564.45
   14379.600     80197.15     76695.45
   14379.800     80068.15     76591.45
   14380.000     79702.15     76272.45
   14380.200     79891.15     76486.45
   14380.400     80040.15     76640.45
   14380.600     79804.15     76449.45
   14380.800     79802.15     76488.45
   14381.000     79702.15     76427.45
   14381.200     79678.15     76453.45
   14381.400     79683.15     76526.45
   14381.600     79632.15     76480.45
   14381.800     79608.15     76545.45
   14382.000     79703.15     76696.45
   14382.200     79763.15     76803.45
   14382.400     79924.15     76984.45
   14382.600     80007.15     77171.45
   14382.800     80153.15     77362.45
   14383.000     80209.15     77474.45
   14384.082     79903.15     77590.45
   14385.184     79744.15     77881.45
   14386.306     79195.15     77795.45
   14387.447     78502.15     77517.45
   14388.607     78319.15     77672.45
   14389.787     78206.15     77731.45
   14390.985     77373.15     77009.45
   14392.203     78161.15     77718.45
   14393.440     78703.15     78082.45
   14394.696     79012.15     78058.45
   14395.972     79466.15     78111.45
   14397.266     79924.15     78201.45
   14398.580     80254.15     78139.45
   14399.914     80446.15     78009.45
   14401.266     81039.15     78400.45
   14402.637     81212.15     78406.45
   14404.028     81343.15     78498.45
   14405.438     81446.15     78609.45
   14406.867     81738.15     78900.45
   14408.316     81929.15     79108.45
   14409.783     81749.15     79016.45
   14411.270     81858.15     79128.45
   14412.776     81697.15     79031.45
   14414.302     81734.15     79172.45
   14415.846     81445.15     78965.45
   14417.410     81406.15     79038.45
   14418.993     80446.15     78155.45
   14420.595     80890.15     78692.45
   14422.216     80991.15     78884.45
   14423.857     80983.15     79010.45
   14425.517     80720.15     78819.45
   14427.196     80162.15     78364.45
   14428.894     81442.15     79637.45
   14430.611     80817.15     78971.45
   14432.348     81078.15     79109.45
   14434.104     81671.15     79509.45
   14435.879     80737.15     78395.45
   14437.673     81238.15     78643.45
   14439.487     80686.15     77902.45
   14441.319     82433.15     79399.45
   14443.171     81806.15     78641.45
   14445.042     81563.15     78333.45
   14446.933     81667.15     78370.45
   14448.842     81433.15     78115.45
   14450.771     81537.15     78170.45
   14452.719     81278.15     77950.45
   14454.686     80647.15     77338.45
   14456.673     80652.15     77304.45
   14458.679     80817.15     77420.45
   14460.703     80215.15     76777.45
   14462.748     80171.15     76686.45
   14464.811     80233.15     76661.45
   14466.893     80200.15     76548.45
   14468.995     80291.15     76606.45
   14471.116     80461.15     76701.45
   14473.256     80963.15     77173.45
   14475.416     81141.15     77351.45
   14477.594     79842.15     76140.45
   14479.792     77782.15     74178.45
   14482.009     80636.15     76968.45
   14484.245     81710.15     78013.45
   14486.501     81511.15     77815.45
   14488.775     81386.15     77660.45
   14491.069     82127.15     78335.45
   14493.382     83121.15     79185.45
   14495.715     82885.15     78914.45
   14498.066     81907.15     77896.45
   14500.437     82055.15     77960.45
   14502.827     82625.15     78394.45
   14505.236     83103.15     78742.45
   14507.665     83219.15     78747.45
   14510.112     83465.15     78892.45
   14512.579     84118.15     79399.45
   14515.065     84317.15     79512.45
   14517.570     84560.15     79672.45
   14520.095     85742.15     80731.45
   14522.639     85633.15     80562.45
   14525.201     86193.15     80955.45
   14527.784     86622.15     81263.45
   14530.385     86898.15     81422.45
   14533.006     87266.15     81680.45
   14535.645     87635.15     81989.45
   14538.304     87739.15     82089.45
   14540.982     88339.15     82678.45
   14543.680     88256.15     82636.45
   14546.397     88475.15     82910.45
   14549.132     88859.15     83316.45
   14551.887     89240.15     83652.45
   14554.662     89306.15     83721.45
   14557.455     89626.15     84002.45
   14560.268     90154.15     84436.45
   14563.100     90213.15     84447.45
   14565.951     90277.15     84396.45
   14568.821     90525.15     84545.45
   14571.711     90144.15     84078.45
   14574.620     91480.15     85169.45
   14577.548     92277.15     85683.45
   14580.495     91874.15     85142.45
   14583.461     90794.15     84025.45
   14586.447     90594.15     83675.45
   14589.452     90269.15     83221.45
   14592.476     88721.15     81671.45
   14595.519     87856.15     80759.45
   14598.582     87037.15     79907.45
   14601.664     86997.15     79852.45
   14604.764     87236.15     80049.45
   14607.885     87055.15     79875.45
   14611.024     87402.15     80203.45
   14614.183     87215.15     80064.45
   14617.360     86769.15     79642.45
   14620.557     86481.15     79334.45
   14623.774     86982.15     79768.45
   14627.009     87223.15     79873.45
   14630.264     87225.15     79814.45
   14633.538     87266.15     79790.45
   14636.831     88281.15     80661.45
   14640.143     87481.15     79898.45
   14643.475     87748.15     80060.45
   14646.825     87604.15     79827.45
   14650.195     87763.15     79867.45
   14653.584     88205.15     80110.45
   14656.993     88752.15     80453.45
   14660.420     87468.15     79120.45
   14663.867     90106.15     81381.45
   14667.333     90764.15     81834.45
   14670.819     90608.15     81624.45
   14674.323     90415.15     81375.45
   14677.847     90677.15     81560.45
   14681.390     90939.15     81748.45
   14684.952     89376.15     80396.45
   14688.533     87850.15     79016.45
   14692.134     86976.15     78192.45
   14695.753     87671.15     78740.45
   14699.392     87140.15     78197.45
   14703.050     88273.15     79121.45
   14706.728     89436.15     80024.45
   14710.425     88297.15     78984.45
   14714.140     87899.15     78525.45
   14717.875     89321.15     79733.45
   14721.630     89983.15     80248.45
   14725.403     90073.15     80236.45
   14729.196     90584.15     80579.45
   14733.008     91462.15     81263.45
   14736.839     90771.15     80565.45
   14740.689     90868.15     80508.45
   14744.559     91242.15     80716.45
   14748.448     92097.15     81356.45
   14752.356     92847.15     81875.45
   14756.283     93344.15     82190.45
   14760.229     94016.15     82670.45
   14764.195     94088.15     82641.45
   14768.180     93799.15     82303.45
   14772.184     95254.15     83496.45
   14776.207     95065.15     83295.45
   14780.250     95904.15     83948.45
   14784.311     96383.15     84301.45
   14788.392     96660.15     84485.45
   14792.492     97593.15     85223.45
   14796.612     96941.15     84577.45
   14800.750     97102.15     84657.45
   14804.908     96204.15     83766.45
   14809.085     96211.15     83678.45
   14813.281     97486.15     84701.45
   14817.497     96194.15     83491.45
   14821.731     93457.15     81038.45
   14825.985     91529.15     79255.45
   14830.258     92181.15     79718.45
   14834.551     93252.15     80529.45
   14838.862     91987.15     79357.45
   14843.193     91455.15     78731.45
   14847.543     92376.15     79448.45
   14851.912     92019.15     79035.45
   14856.300     92845.15     79644.45
   14860.708     92610.15     79337.45
   14865.135     93225.15     79777.45
   14869.581     92744.15     79302.45
   14874.046     92732.15     79205.45
   14878.530     93625.15     79873.45
   14883.034     94549.15     80572.45
   14887.557     95216.15     81079.45
   14892.099     94520.15     80434.45
   14896.660     93356.15     79362.45
   14901.241     93297.15     79222.45
   14905.841     94122.15     79770.45
   14910.460     95147.15     80566.45
   14915.098     95118.15     80446.45
   14919.755     94132.15     79538.45
   14924.432     94667.15     79859.45
   14929.128     95059.15     80072.45
   14933.843     95598.15     80415.45
   14938.577     94346.15     79239.45
   14943.330     95376.15     79995.45
   14948.103     95058.15     79591.45
   14952.895     94830.15     79314.45
   14957.706     95713.15     79918.45
   14962.536     96239.15     80047.45
   14967.386     96039.15     80034.45
   14972.255     97047.15     80732.45
   14977.143     98026.15     81424.45
   14982.050     98133.15     81444.45
   14986.976     99755.15     82640.45
   14991.922     99649.15     82520.45
   14996.887    100239.15     82893.45
