# XDI/1.0
# Column.1: energy eV
# Column.2: i0
# Column.3: itrans
# Column.4: irefer
# Beamline.name: SSRL 2-3
# Beamline.notes: vert slits = 0.6mm
# Detector.I0: N2 15cm
# Detector.I1: Ar 30cm
# Detector.I2: Ar 15cm
# Element.edge: K
# Element.symbol: As
# Mono.d_spacing: 3.13550
# Mono.name: Si(111)
# Mono.notes: unfocused, detuned 75%, clockwise at E=12000eV
# Sample.formula: As2O3
# Sample.name: As2O3 arsenious oxide
# Sample.prep: powder on tape (2 layers)
# Sample.reference: GaAs powder
# Sample.temperature: 100K
# Scan.start_time: 1997-04-19 23:43:03
# ///
#    Note: mono d_spacing is nominal!
#     exafs to K16, GaAs in IR
#     413  E XMU XMUR I0
#-------------
#   energy   i0   itrans  irefer
   11634.8900  511889.310000  94191.543921  38431.018627
   11644.9080  509407.310000  94068.469181  38602.989153
   11654.9440  506843.310000  93923.526433  38772.010311
   11664.9980  503714.310000  93686.514999  38898.004928
   11675.0700  501933.310000  93696.540006  39134.015963
   11684.8620  499519.310000  93584.545344  39328.020553
   11694.9690  496501.310000  93358.518759  39458.008163
   11705.0930  494305.310000  93287.522413  39656.008011
   11714.9370  491475.310000  93083.478084  39792.991521
   11725.0950  488895.310000  92909.544177  39949.017416
   11734.9740  487178.310000  92898.471796  40172.986643
   11744.8670  484704.310000  92760.512271  40346.007169
   11755.0790  482116.310000  92567.526277  40501.013237
   11765.0090  479583.310000  92401.537925  40663.017674
   11774.9540  476765.310000  92171.535494  40797.016643
   11784.9180  474789.310000  92075.523485  40973.009610
   11794.8960  472307.310000  91864.517357  41114.006501
   11804.8950  470307.310000  91721.455985  41263.978665
   11814.9090  467288.310000  91376.509096  41329.004158
   11824.9400  465096.310000  91098.514914  41403.006643
   11834.9890  462686.310000  90647.495472  41391.999289
   11845.0570  460789.310000  89925.532425  41172.016331
   11845.3610  460139.310000  89784.494329  41093.998603
   11845.9730  459538.310000  89630.468424  41030.984941
   11846.5830  459797.310000  89628.536943  41036.017716
   11846.8890  459763.310000  89578.542796  41005.020629
   11847.4990  459459.310000  89467.495908  40964.997604
   11848.1100  459012.310000  89330.504819  40890.003864
   11848.4150  458824.310000  89274.542594  40869.018001
   11849.0270  458575.310000  89161.517756  40821.007198
   11849.6370  458278.310000  89014.534316  40734.013799
   11849.9420  457946.310000  88913.496724  40692.998481
   11850.5560  458144.310000  88876.540546  40670.020412
   11850.8600  458280.310000  88846.488084  40639.992855
   11851.4710  457817.310000  88657.463364  40555.983088
   11852.0830  457796.310000  88534.503598  40488.000538
   11852.3900  458525.310000  88621.500008  40513.999940
   11853.0000  458294.310000  88449.483045  40430.990237
   11853.6100  458315.310000  88295.522369  40345.009107
   11853.9170  457988.310000  88155.531668  40267.015496
   11854.5290  458780.310000  88114.531980  40220.015432
   11855.1400  458365.310000  87848.477717  40059.990227
   11855.4460  458152.310000  87707.523583  39991.010182
   11856.0580  457956.310000  87425.481154  39821.990569
   11856.3630  458110.310000  87337.507228  39756.001333
   11856.9760  458072.310000  87024.531811  39572.014099
   11857.5880  457620.310000  86589.522662  39318.011541
   11857.8940  457334.310000  86371.490922  39172.996914
   11858.5040  457659.310000  86016.491774  38936.995612
   11859.1180  457192.310000  85455.529003  38586.011407
   11859.4240  457076.310000  85133.478259  38391.990506
   11860.0350  457528.310000  84566.462408  38002.983226
   11860.6470  457536.310000  83849.476729  37502.989421
   11860.9550  457321.310000  83412.504250  37212.001462
   11861.5660  456716.310000  82312.537269  36467.017877
   11861.8720  456562.310000  81685.473718  36043.988157
   11862.4840  456372.310000  80241.508689  34967.003011
   11863.0980  455919.310000  78375.536334  33578.015160
   11863.4030  455453.310000  77428.521589  32868.008829
   11864.0170  455378.310000  74953.470227  30940.986349
   11864.6280  455509.310000  71623.494497  28417.997396
   11864.9350  455380.310000  69543.531985  26924.011680
   11865.5470  455101.310000  64626.468341  23701.991011
   11865.8540  455357.310000  62050.489938  22155.004493
   11866.4670  455697.310000  55066.513737  18450.007837
   11867.0780  455434.310000  47158.510498  14858.996269
   11867.3880  455186.310000  42683.516176  13041.007394
   11867.9990  455590.310000  34167.502147  9903.002190
   11868.6110  455799.310000  26485.505021  7367.000260
   11868.9190  455510.310000  23927.498225  6569.996836
   11869.5320  454490.310000  19330.508386  5202.002217
   11870.1450  454853.310000  17251.497846  4618.001203
   11870.4510  454796.310000  17141.503848  4591.999951
   11871.0640  454378.310000  18343.497151  4954.999828
   11871.3710  454154.310000  19220.492550  5209.995699
   11871.9850  453728.310000  21779.509199  5966.005350
   11872.5990  453192.310000  24449.494987  6767.999584
   11872.9050  453195.310000  25829.498215  7190.000063
   11873.5180  453183.310000  28414.503501  8006.003530
   11874.1330  453509.310000  30894.488385  8831.993897
   11874.4390  453376.310000  31996.498887  9206.000383
   11875.0530  453289.310000  34471.488947  10090.996343
   11875.3580  453355.310000  35662.516058  10532.999800
   11875.9750  453605.310000  37810.485513  11352.993557
   11876.5880  453295.310000  39324.503037  11986.006107
   11876.8940  452773.310000  39757.503111  12176.995790
   11877.5090  453070.310000  40301.485252  12479.001143
   11878.1230  453003.310000  39989.480511  12484.993864
   11878.4300  452802.310000  39528.488052  12374.991585
   11879.0440  452518.310000  38313.496625  12066.997253
   11879.3510  452555.310000  37680.510116  11890.003294
   11879.9660  453087.310000  36297.499123  11502.999693
   11880.5800  452475.310000  35107.514579  11169.001279
   11880.8870  452032.310000  34677.486057  11044.998042
   11881.5000  452402.310000  34378.516548  10964.007367
   11882.1160  452015.310000  34539.515691  11021.005590
   11882.4240  451937.310000  34735.508919  11088.000367
   11883.0370  451430.310000  35320.516843  11268.001789
   11883.6520  451353.310000  36010.495055  11482.997066
   11883.9590  451134.310000  36326.485381  11583.991479
   11884.5740  450875.310000  36873.488603  11761.998009
   11884.8810  450356.310000  37038.505825  11816.006194
   11885.4960  450519.310000  37479.493358  11971.992214
   11886.1100  450848.310000  37924.484839  12127.989237
   11886.4190  450273.310000  38096.512936  12187.998694
   11887.0340  450735.310000  38618.493634  12365.993821
   11887.6480  450924.310000  39158.499445  12541.002778
   11887.9550  451078.310000  39405.482674  12617.994888
   11888.5720  450792.310000  39896.504896  12773.001985
   11888.8790  450323.310000  40105.512410  12841.007892
   11889.4930  450819.310000  40628.492907  13000.003364
   11890.1090  451133.310000  41136.503215  13148.002993
   11890.4170  450783.310000  41328.517515  13209.004530
   11891.0320  450065.310000  41882.484377  13386.994896
   11891.6480  449915.310000  42533.515496  13589.009826
   11891.9560  450080.310000  42913.481623  13719.991922
   11892.5700  449871.310000  43577.482655  13951.995771
   11892.8790  449880.310000  43865.519103  14048.007484
   11893.4950  450119.310000  44429.500788  14262.000333
   11894.1090  449762.310000  44762.477972  14417.997365
   11894.4190  449461.310000  44881.504204  14480.005645
   11895.0350  449629.310000  45062.503276  14586.004714
   11895.6490  449730.060000  45152.269126  14671.759683
   11896.2660  449421.340000  45160.501499  14715.036235
   11896.8810  449104.120000  45170.298317  14746.838989
   11897.4980  449148.440000  45225.560936  14763.153298
   11898.4220  449107.250000  45310.360881  14782.997804
   11899.0380  449476.590000  45402.618176  14793.335458
   11899.6550  448947.440000  45413.427478  14779.215280
   11900.5800  449803.810000  45666.752189  14833.624209
   11901.1950  450111.720000  45821.564394  14880.532553
   11902.1210  450042.090000  46053.884436  14946.977593
   11903.0450  450221.030000  46294.707234  15038.921993
   11903.6620  450526.470000  46459.075684  15108.399271
   11904.5870  450689.410000  46634.911415  15184.397686
   11905.5130  450935.870000  46812.259993  15255.897266
   11906.4380  451108.870000  46971.108845  15337.927880
   11907.3630  451584.370000  47115.508833  15401.489437
   11908.2910  452313.370000  47133.369686  15413.553751
   11909.2150  452491.910000  46920.744192  15346.138587
   11910.1430  453097.970000  46598.640711  15238.260014
   11911.0680  453402.530000  46133.036402  15069.884044
   11912.3030  454882.590000  45555.954594  14864.032101
   11913.2290  455308.220000  45121.353125  14705.691507
   11914.1560  455769.310000  44723.307324  14566.884716
   11915.3920  456320.940000  44414.739175  14473.601121
   11916.3180  457695.090000  44418.685258  14496.818623
   11917.5560  458085.750000  44396.134004  14557.573791
   11918.7930  458431.940000  44419.068151  14628.824162
   11919.7190  459373.620000  44440.528888  14688.602690
   11920.9570  460226.840000  44298.530209  14702.925658
   11922.1930  461658.560000  44051.991891  14642.738839
   11923.4320  462584.810000  43677.972495  14543.074677
   11924.6690  463451.560000  43299.447295  14432.936769
   11925.9080  464684.840000  43028.488189  14359.322924
   11927.1460  466323.620000  42948.978154  14330.223761
   11928.3840  467193.940000  42934.017505  14319.646286
   11929.6230  467834.750000  42962.521185  14314.587687
   11930.8610  469333.090000  43022.564316  14309.043208
   11932.4110  470808.970000  43036.105574  14273.025509
   11933.6510  471977.310000  43120.128748  14260.520463
   11934.8910  473374.220000  43341.700798  14292.533077
   11936.4410  474137.620000  43563.760220  14324.073983
   11937.9920  475519.530000  43735.361114  14365.133039
   11939.2320  476700.970000  43781.414333  14383.696778
   11940.7840  477071.940000  43631.017027  14355.803666
   11942.3360  477863.410000  43457.086700  14330.411229
   11943.5770  479894.370000  43446.705115  14351.550960
   11945.1300  482546.870000  43563.822902  14412.199796
   11946.6840  485762.910000  43900.410260  14546.372726
   11948.2370  486675.440000  44243.543591  14688.053162
   11949.7910  489019.470000  44840.211037  14910.285915
   11951.3460  490120.030000  45327.337183  15095.011429
   11952.8990  491586.120000  45731.994113  15260.261209
   11954.7670  493652.720000  46126.114931  15438.019629
   11956.3220  495816.840000  46447.822432  15592.321544
   11957.8780  497580.470000  46774.972875  15729.128192
   11959.7450  499201.620000  47217.664112  15889.445158
   11961.3010  500626.280000  47596.863900  16004.307018
   11963.1710  502582.440000  47995.520622  16126.658114
   11964.7290  504742.160000  48306.722088  16232.537647
   11966.5980  507312.340000  48661.437038  16373.953468
   11968.4700  508927.090000  48976.655423  16536.875476
   11970.0270  510937.310000  49327.409573  16737.335817
   11971.9000  512898.090000  49630.629355  16946.294061
   11973.7710  514608.340000  49885.386616  17132.771758
   11975.6440  517031.160000  50231.641831  17323.780335
   11977.5190  518795.470000  50568.392184  17482.296157
   11979.3920  521811.280000  51112.648444  17680.334734
   11981.2670  523525.620000  51630.416658  17879.896282
   11983.1410  524991.500000  52129.711889  18061.978112
   11985.0170  525320.870000  52433.476762  18142.572655
   11987.2060  527979.750000  52862.802792  18253.702400
   11989.0830  531757.120000  53317.619231  18370.348014
   11991.2730  535336.060000  53724.906341  18432.486882
   11993.1510  537742.500000  54029.750014  18478.184519
   11995.3440  539161.440000  54171.072253  18458.372170
   11997.2250  542076.940000  54377.906839  18485.080497
   11999.4170  544901.870000  54455.220591  18499.315352
   12001.2990  547201.370000  54457.080081  18507.070902
   12003.4940  548771.440000  54301.455656  18492.348173
   12005.6880  551936.940000  54291.289550  18534.146743
   12007.8860  553771.000000  54141.676184  18527.446809
   12010.0830  555644.560000  54048.555001  18537.279438
   12012.2820  558805.620000  54231.975296  18661.651281
   12014.4810  561862.250000  54532.874033  18824.528240
   12016.6820  565154.370000  54927.268273  19012.904162
   12018.8810  568665.000000  55369.146074  19216.811763
   12021.0830  570382.120000  55583.562674  19350.234189
   12023.6020  573872.810000  55988.526533  19561.195579
   12025.8040  576474.000000  56283.940115  19725.658278
   12028.0080  578893.690000  56518.886184  19862.645378
   12030.5270  581587.870000  56727.327989  19988.159430
   12032.7330  584902.620000  57028.284944  20140.170879
   12035.2570  587831.870000  57392.749019  20314.724575
   12037.7800  590955.620000  57834.756676  20527.797054
   12039.9890  593188.870000  58175.240744  20683.387616
   12042.5140  595659.690000  58559.217901  20867.491430
   12045.0400  599226.000000  59035.728148  21082.110188
   12047.5660  601893.810000  59426.724607  21271.263586
   12050.0960  605586.120000  59945.258201  21492.924382
   12052.6250  607896.000000  60372.265239  21651.111978
   12055.1540  609112.370000  60653.768356  21725.784181
   12057.6880  611951.250000  61100.840516  21870.017229
   12060.2210  617906.690000  61822.381494  22117.772238
   12062.7540  621633.620000  62298.408755  22320.016658
   12065.2880  624089.060000  62543.985833  22461.799865
   12068.1420  627434.000000  62785.081291  22589.122525
   12070.6780  631655.440000  63109.609982  22706.904826
   12073.2180  633994.440000  63393.744202  22789.278512
   12076.0730  636936.940000  63965.294023  22966.110100
   12078.6150  640888.940000  64696.375599  23208.490496
   12081.4730  645038.500000  65466.005305  23463.382278
   12084.3350  647257.560000  66008.155247  23645.818667
   12086.8780  652074.120000  66703.754217  23892.730188
   12089.7420  654606.190000  67101.863675  24066.186805
   12092.6060  658565.810000  67590.501001  24318.161437
   12095.4740  660770.870000  67785.691870  24475.659607
   12098.3400  664601.560000  68093.291802  24684.652721
   12101.2090  667216.690000  68291.469804  24841.207468
   12104.0800  671814.310000  68821.140877  25111.250629
   12106.9520  674580.500000  69233.303838  25331.812482
   12109.8250  678665.190000  69842.025503  25642.930335
   12112.6970  680786.440000  70325.162095  25914.510410
   12115.8940  686970.120000  71232.900533  26361.652513
   12118.7710  690269.370000  71726.115393  26634.306762
   12121.6500  694552.190000  72228.832404  26929.474874
   12124.8500  695634.440000  72325.031939  27048.152201
   12127.7310  700811.250000  72896.789085  27331.369066
   12130.9360  703529.560000  73275.982445  27538.077798
   12133.8190  707437.370000  73814.788863  27771.346914
   12137.0270  709573.690000  74173.975421  27922.087801
   12140.2350  715748.560000  74866.754894  28190.375690
   12143.4450  718129.940000  75007.006382  28228.175987
   12146.3370  722544.810000  75316.816670  28340.507420
   12149.5510  725933.250000  75505.089792  28417.349839
   12152.7650  729823.120000  75720.899337  28507.716454
   12155.9810  733131.560000  75848.214631  28572.604306
   12159.2000  737744.560000  76225.011217  28736.998533
   12162.4210  741885.000000  76797.281672  28994.902673
   12165.6420  744773.000000  77399.124872  29267.347475
   12169.1890  750059.500000  78311.505756  29673.326265
   12172.4150  753448.500000  78979.290144  29977.786819
   12175.6430  758011.060000  79725.698687  30334.806317
   12178.8720  761763.060000  80399.548657  30635.322168
   12182.4260  766118.690000  81237.917748  30995.359679
   12185.6580  770068.750000  82004.719179  31335.890331
   12189.2180  773359.310000  82702.163784  31668.993081
   12192.4520  778636.440000  83500.050449  32050.588208
   12196.0160  781666.060000  83998.388664  32325.681788
   12199.5790  785312.250000  84522.300382  32610.320218
   12202.8220  789626.870000  85061.754602  32880.491469
   12206.3900  792787.060000  85434.641865  33103.150562
   12209.9610  796877.750000  85882.087451  33366.349073
   12213.5340  801946.000000  86430.988433  33690.051091
   12217.1070  805224.690000  86812.390266  33954.264472
   12220.6860  809684.940000  87341.367841  34282.026533
   12224.2630  813749.690000  87777.816790  34566.296321
   12227.8450  816928.000000  88120.832011  34805.104731
   12231.4270  822223.810000  88727.301060  35126.415752
   12235.0130  824105.060000  89083.222919  35349.219814
   12238.9270  828007.940000  89738.756496  35699.587843
   12242.5160  831745.250000  90488.720179  36070.436778
   12246.1080  835651.120000  91293.190900  36448.809816
   12250.0290  840438.500000  92201.258435  36836.742311
   12253.6250  843207.370000  92864.730007  37128.149118
   12257.5500  848463.750000  93829.786725  37516.107021
   12261.1520  852688.690000  94671.359638  37896.589526
   12265.0810  856661.120000  95407.330440  38253.540363
   12269.0160  859419.060000  95886.926602  38502.063966
   12272.6230  864912.560000  96553.997855  38820.094619
   12276.5610  869427.560000  97086.566443  39118.633676
   12280.5020  872777.060000  97503.585428  39351.675405
   12284.4450  877234.060000  98084.155904  39652.252017
   12288.3910  881751.620000  98590.253355  39939.352114
   12292.3380  883755.620000  98793.871794  40125.986887
   12296.2890  889392.250000  99418.912712  40494.099182
   12300.2430  893904.310000  99971.558812  40811.770549
   12304.1980  896751.870000  100362.657590  41084.938797
   12308.1580  901071.000000  100943.308355  41427.646832
   12312.1190  906552.620000  101712.486770  41849.881942
   12316.0840  909927.810000  102257.103735  42180.607044
   12320.3800  914016.440000  102950.218737  42585.850838
   12324.3490  918429.620000  103724.907744  43023.637622
   12328.6520  921733.310000  104441.063858  43425.930085
   12332.6270  925580.560000  105200.723017  43870.739562
   12336.6040  929407.250000  105929.949021  44299.089215
   12340.9150  935908.500000  106871.557401  44821.906993
   12345.2290  938626.250000  107343.757331  45127.281284
   12349.2150  944072.560000  108187.521060  45567.193992
   12353.5360  947799.370000  108911.741675  45975.610292
   12357.8590  951430.690000  109637.431140  46390.529890
   12362.1870  955526.500000  110409.645365  46808.972165
   12366.1830  960656.810000  111271.396162  47274.948615
   12370.5150  963573.690000  111867.592992  47651.416961
   12374.8510  967493.060000  112553.341029  48052.422566
   12379.1890  971882.940000  113217.683146  48444.986981
   12383.5320  976722.370000  113907.469282  48827.044301
   12387.8760  979058.250000  114325.671170  49073.576850
   12392.5600  982400.690000  114912.418477  49443.646167
   12396.9110  987681.690000  115730.761259  49881.274396
   12401.2650  991178.120000  116355.511173  50240.378492
   12405.6210  995881.120000  117104.874088  50663.047213
   12410.3170  999344.620000  117680.659932  51019.202636
   12414.6820  1003094.600000  118290.930237  51400.864972
   12419.0490  1008176.200000  119112.834739  51867.097777
   12423.7550  1009956.200000  119603.157606  52224.813824
   12428.1290  1014293.800000  120440.021939  52714.063829
   12432.8420  1018654.900000  121301.394297  53249.835240
   12437.5600  1024854.500000  122413.166076  53871.077065
   12441.9420  1028524.600000  123235.557698  54386.884287
   12446.6660  1033253.300000  124119.479642  54925.226782
   12451.3950  1037840.400000  124954.827836  55475.045815
   12456.1250  1039188.100000  125358.673213  55798.384323
   12460.5220  1043720.200000  126157.070877  56306.260329
   12465.2610  1047268.900000  126836.011866  56764.674642
   12470.0030  1052335.100000  127681.371928  57288.567211
   12474.7480  1057085.900000  128474.347018  57806.027388
   12479.4980  1060591.100000  129095.788225  58225.987354
   12484.2500  1064227.900000  129708.657423  58665.430709
   12489.0070  1067799.100000  130315.168986  59047.452081
   12494.1070  1072005.900000  130977.145395  59509.974987
   12498.8710  1074455.300000  131436.535385  59845.977166
   12503.6400  1079082.100000  132192.481196  60324.519804
   12508.4110  1082644.400000  132825.049618  60755.629579
   12513.5270  1084791.300000  133351.019680  61137.217018
   12518.3070  1090761.600000  134355.523480  61732.340255
   12523.4320  1093883.500000  135079.499104  62218.954457
   12528.2200  1098682.900000  136004.963003  62802.078982
   12533.3520  1100868.900000  136637.038500  63255.783114
   12538.1460  1105591.300000  137557.578744  63816.972649
   12543.2880  1108961.300000  138389.626929  64361.690651
   12548.0900  1112911.800000  139256.158334  64913.914698
   12553.2390  1116069.800000  140062.210663  65452.663439
   12558.3930  1119868.300000  140900.697342  66004.899102
   12563.5510  1123720.300000  141744.785604  66569.695806
   12568.7130  1128158.800000  142656.294518  67173.968723
   12573.5360  1133050.900000  143556.428088  67762.821223
   12578.7070  1136211.400000  144244.917892  68266.118421
   12583.8810  1139610.500000  144949.124646  68803.039060
   12589.0610  1143575.100000  145706.698517  69348.407749
   12594.2440  1147109.100000  146368.765785  69857.288851
   12599.4320  1150486.900000  147046.449970  70373.749912
   12604.9720  1152147.000000  147503.578615  70809.688693
   12610.1680  1156569.600000  148360.134833  71421.115537
   12615.3690  1158979.800000  148967.239757  71898.076675
   12620.5740  1164808.500000  150036.856634  72618.562779
   12625.7840  1168603.800000  150853.019484  73223.578655
   12631.3480  1169987.500000  151418.775214  73699.170495
   12636.5660  1175600.800000  152497.867913  74409.186974
   12642.1370  1178372.500000  153284.631261  75018.798451
   12647.3640  1182793.800000  154251.833022  75675.907444
   12652.9450  1185687.500000  155085.418793  76272.469505
   12658.1840  1188189.900000  155800.654704  76811.628053
   12663.7740  1191816.600000  156672.396180  77440.281399
   12669.0200  1195103.000000  157462.550143  78035.429906
   12674.6200  1198073.900000  158174.279971  78590.125590
   12680.2280  1202407.300000  159080.586890  79238.382552
   12685.8370  1205401.100000  159796.263964  79799.078248
   12691.1020  1210092.500000  160719.575932  80467.355622
   12696.7220  1210792.500000  161112.258999  80889.092083
   12702.3490  1213337.900000  161757.521924  81451.384714
   12707.9790  1219224.900000  162888.286664  82227.188520
   12713.6130  1219050.400000  163121.524808  82568.493571
   12719.2550  1222929.300000  163970.301883  83237.346669
   12724.9010  1224940.800000  164566.673033  83759.759502
   12730.5510  1230136.900000  165597.433391  84524.610712
   12736.2080  1234542.400000  166551.846957  85252.083358
   12741.8680  1236841.400000  167268.641343  85851.997187
   12747.8890  1240274.000000  168182.988169  86569.460385
   12753.5620  1242600.100000  168917.818926  87204.411315
   12759.2370  1245335.600000  169713.094314  87839.864116
   12764.9190  1246010.800000  170259.946639  88377.867182
   12770.9620  1250169.400000  171263.334724  89168.411091
   12776.6540  1252977.600000  172081.134472  89848.406472
   12782.3510  1254909.300000  172797.532722  90465.989916
   12788.4100  1259120.400000  173809.463336  91272.109675
   12794.1190  1263246.100000  174762.857840  92011.701290
   12800.1890  1264752.400000  175404.660587  92615.781230
   12806.2660  1269194.000000  176410.088382  93410.432155
   12811.9890  1270569.300000  176948.078322  93942.636569
   12818.0770  1274293.000000  177887.405005  94723.270061
   12824.1700  1277387.400000  178674.403975  95402.499402
   12829.9100  1278350.100000  179174.741846  95922.170729
   12836.0160  1281100.500000  179970.644801  96595.383783
   12842.1270  1282407.300000  180521.212877  97157.200822
   12848.2440  1287541.600000  181682.188330  98059.490724
   12854.3660  1290574.500000  182538.616346  98798.265315
   12860.4950  1293132.900000  183320.531275  99527.546761
   12866.2690  1295064.800000  184002.990739  100139.369580
   12872.4080  1296534.100000  184704.990478  100776.733064
   12878.5550  1300273.000000  185681.440778  101598.576214
   12885.0690  1302586.500000  186538.412341  102376.949238

