# XDI/1.0
# Column.1: energy eV
# Column.2: i0
# Column.3: itrans
# Column.4: irefer
# Beamline.name: SSRL 2-3
# Beamline.notes: vert slits = 0.6mm
# Detector.I0: N2 15cm
# Detector.I1: Ar 30cm
# Detector.I2: Ar 15cm
# Element.edge: K
# Element.symbol: As
# Mono.d_spacing: 3.13550
# Mono.name: Si(111)
# Mono.notes: unfocused, detuned 75%, clockwise at E=12000eV
# Sample.formula: As2O3
# Sample.name: As2O3 arsenious oxide
# Sample.prep: powder on tape (5 layers)
# Sample.reference: GaAs powder
# Sample.temperature: 10K
# Scan.start_time: 1997-04-19 19:47:10
# ///
#    Note: mono d_spacing is nominal!
#     exafs to K16, GaAs in IR
#     413  E XMU XMUR I0
#-------------
#   energy   i0   itrans  irefer
   11634.8900  542376.310000  61607.527295  25297.011328
   11644.9080  539180.310000  61526.504033  25419.000406
   11654.9440  535543.310000  61408.469434  25505.988413
   11664.9980  533378.310000  61447.487437  25682.993652
   11675.0700  531708.310000  61545.519131  25871.007742
   11684.8620  529064.310000  61519.487434  26012.994288
   11694.9690  525158.310000  61348.502393  26085.000614
   11705.0930  523013.310000  61389.506281  26257.002440
   11714.9370  519761.310000  61275.475346  26358.989834
   11725.0950  517975.310000  61347.509601  26540.003931
   11734.9740  515513.310000  61327.485710  26680.992559
   11744.8670  512995.310000  61277.498442  26813.999025
   11755.0790  510041.310000  61191.526401  26925.010754
   11765.0090  507041.310000  61079.511314  27018.004566
   11774.9540  504386.310000  60989.484408  27138.993346
   11784.9180  502345.310000  60962.489680  27279.995056
   11794.8960  499575.310000  60798.514584  27360.007243
   11804.8950  497055.310000  60655.499521  27442.000580
   11814.9090  493991.310000  60334.490739  27445.996929
   11824.9400  491360.310000  59962.519234  27415.007642
   11834.9890  488720.310000  59301.485878  27233.993735
   11845.0570  486395.310000  57963.510795  26688.004328
   11845.3610  486107.310000  57884.485887  26659.994328
   11845.9730  485637.310000  57726.484379  26585.992240
   11846.5830  485481.310000  57596.499345  26530.000595
   11846.8890  485731.310000  57573.512582  26516.004947
   11847.4990  485799.310000  57456.526227  26460.011577
   11848.1100  485203.310000  57242.521151  26370.010511
   11848.4150  484767.310000  57121.524244  26306.011905
   11849.0270  484703.310000  56974.509827  26238.003414
   11849.6370  484972.310000  56826.501722  26168.999801
   11849.9420  484209.310000  56664.520374  26096.008508
   11850.5560  483556.310000  56405.505636  25968.001574
   11850.8600  483586.310000  56307.503864  25923.002704
   11851.4710  483910.310000  56129.503289  25840.002602
   11852.0830  483788.310000  55881.503227  25724.000688
   11852.3900  483252.310000  55723.496501  25646.997243
   11853.0000  483780.310000  55524.474121  25538.987311
   11853.6100  484199.310000  55267.477183  25425.988481
   11853.9170  484087.310000  55092.483046  25332.992131
   11854.5290  483815.310000  54708.508347  25149.002733
   11855.1400  484176.310000  54352.473181  24969.987838
   11855.4460  484077.310000  54185.515193  24883.007116
   11856.0580  483767.310000  53708.486620  24642.993646
   11856.3630  483579.310000  53451.480428  24521.991680
   11856.9760  483149.310000  52864.484153  24229.992767
   11857.5880  483255.310000  52278.495266  23927.997244
   11857.8940  483545.310000  52060.474969  23822.988623
   11858.5040  483090.310000  51316.514138  23447.006060
   11859.1180  482695.310000  50440.510220  22995.005184
   11859.4240  482929.310000  50039.479649  22787.991004
   11860.0350  483459.310000  49058.484822  22281.992792
   11860.6470  482936.310000  47840.510549  21668.005716
   11860.9550  482048.310000  47254.521252  21366.009908
   11861.5660  482486.310000  45820.498080  20624.998249
   11861.8720  482454.310000  45071.504700  20238.001957
   11862.4840  481702.310000  43123.509358  19228.004982
   11863.0980  481255.310000  40893.491539  18054.995749
   11863.4030  481529.310000  39936.516332  17549.007606
   11864.0170  481108.310000  37072.498762  16043.000066
   11864.6280  480675.310000  33682.486404  14271.994793
   11864.9350  479809.310000  31858.485082  13324.993125
   11865.5470  479980.310000  27736.495753  11234.998613
   11865.8540  480160.310000  25994.501303  10376.000833
   11866.4670  480661.310000  21193.507502  8092.002958
   11867.0780  480053.310000  16257.497065  5908.997328
   11867.3880  479947.310000  14072.497026  4994.000675
   11867.9990  480486.310000  9873.503321  3329.002591
   11868.6110  480556.310000  6201.501325  1983.001115
   11868.9190  480049.310000  5087.501409  1596.999934
   11869.5320  479647.310000  2768.501123   832.000750
   11870.1450  479886.310000  1408.499878   410.000140
   11870.4510  479990.310000  1036.500273   299.000186
   11871.0640  478928.310000   647.500263   184.000081
   11871.3710  478399.310000   601.499702   169.999932
   11871.9850  478406.310000   656.499985   183.999984
   11872.5990  478071.310000   839.499755   235.999854
   11872.9050  477727.310000   952.500248   267.000189
   11873.5180  477748.310000  1248.500268   353.000095
   11874.1330  478037.310000  1607.499368   461.000009
   11874.4390  478260.310000  1781.500819   514.000092
   11875.0530  478204.310000  2260.500091   663.000237
   11875.3580  477864.310000  2502.498973   737.999466
   11875.9750  478025.310000  3079.501339   927.000366
   11876.5880  478317.310000  3599.501417  1096.000167
   11876.8940  478000.310000  3802.498615  1164.999178
   11877.5090  477704.310000  4182.499117  1295.999151
   11878.1230  477576.310000  4346.500153  1360.000352
   11878.4300  477571.310000  4336.499644  1360.999681
   11879.0440  477428.310000  4153.498589  1308.999379
   11879.3510  477162.310000  4011.501883  1268.001077
   11879.9660  476845.310000  3602.500330  1142.999721
   11880.5800  477272.310000  3166.501050  1008.000039
   11880.8870  477139.310000  2984.500818   952.000711
   11881.5000  476465.310000  2713.498926   867.999551
   11882.1160  476432.310000  2594.499576   831.000117
   11882.4240  476357.310000  2590.500820   829.000288
   11883.0370  476368.310000  2670.498918   854.999252
   11883.6520  475395.310000  2819.500353   903.000375
   11883.9590  475326.310000  2903.498928   929.999283
   11884.5740  475489.310000  3079.500474   987.000631
   11884.8810  475535.310000  3142.501497  1009.000400
   11885.4960  474469.310000  3278.499792  1052.999689
   11886.1100  474849.310000  3400.500109  1093.999790
   11886.4190  474804.310000  3455.498534  1111.999493
   11887.0340  474982.310000  3580.500379  1153.000369
   11887.6480  475196.310000  3723.499690  1199.999335
   11887.9550  474680.310000  3782.501434  1220.000838
   11888.5720  474649.310000  3942.500776  1272.999894
   11888.8790  475314.310000  4026.499107  1298.999419
   11889.4930  475322.310000  4183.499601  1348.999385
   11890.1090  474645.310000  4327.499140  1394.999155
   11890.4170  474687.310000  4393.500512  1417.999808
   11891.0320  475242.310000  4580.498341  1474.999720
   11891.6480  474806.310000  4794.497722  1544.998520
   11891.9560  474206.310000  4915.500012  1582.999524
   11892.5700  474143.310000  5186.497520  1670.998944
   11892.8790  474404.310000  5315.499214  1715.999883
   11893.4950  474580.310000  5603.502539  1812.001174
   11894.1090  474184.310000  5820.499517  1885.000499
   11894.4190  473755.310000  5905.499083  1916.999043
   11895.0350  473858.310000  6029.501594  1961.999984
   11895.6490  473815.060000  6096.251516  1994.758672
   11896.2660  473913.340000  6130.513274  2010.037700
   11896.8810  473294.120000  6137.282247  2015.836032
   11897.4980  473627.440000  6154.564620  2027.156396
   11898.4220  474090.250000  6189.347718  2038.992278
   11899.0380  473944.590000  6208.637180  2041.348086
   11899.6550  473288.440000  6221.437643  2045.225418
   11900.5800  473538.810000  6270.749427  2056.622087
   11901.1950  474446.720000  6327.563982  2073.537996
   11902.1210  474227.090000  6410.884826  2099.970506
   11903.0450  473993.030000  6506.720832  2134.925213
   11903.6620  474757.470000  6580.061450  2157.398471
   11904.5870  475525.410000  6663.902801  2185.390037
   11905.5130  475573.870000  6736.262340  2213.903445
   11906.4380  475611.870000  6807.119995  2235.934189
   11907.3630  476006.370000  6874.495345  2263.486303
   11908.2910  476905.370000  6903.372674  2276.556708
   11909.2150  477576.910000  6848.757268  2256.146377
   11910.1430  478139.970000  6709.648156  2211.255633
   11911.0680  478927.530000  6497.050415  2140.882852
   11912.3030  479628.590000  6167.959275  2030.032968
   11913.2290  480492.220000  5938.378028  1951.700486
   11914.1560  481672.310000  5729.298103  1879.885796
   11915.3920  481111.940000  5522.733663  1815.592692
   11916.3180  481722.090000  5444.671212  1788.818545
   11917.5560  482553.750000  5418.122285  1786.564163
   11918.7930  483973.940000  5448.073513  1800.828906
   11919.7190  484439.620000  5455.541059  1812.613634
   11920.9570  485965.840000  5421.509777  1808.915209
   11922.1930  486826.560000  5300.986419  1771.737884
   11923.4320  488170.810000  5133.975781  1719.081893
   11924.6690  489404.560000  4953.470631  1659.943339
   11925.9080  490084.840000  4795.469025  1605.323861
   11927.1460  489929.620000  4682.980415  1570.224728
   11928.3840  491399.940000  4650.000551  1556.645737
   11929.6230  493677.750000  4666.521701  1563.582990
   11930.8610  495188.090000  4666.557604  1559.042218
   11932.4110  496238.970000  4631.096222  1542.020555
   11933.6510  496398.310000  4612.147800  1535.519329
   11934.8910  498603.220000  4653.700126  1543.535600
   11936.4410  500203.620000  4735.764901  1565.071102
   11937.9920  501700.530000  4799.339901  1585.128359
   11939.2320  502297.970000  4800.415657  1586.703366
   11940.7840  502644.940000  4738.004408  1568.798494
   11942.3360  502540.410000  4635.101302  1536.413885
   11943.5770  504717.370000  4573.700475  1517.546080
   11945.1300  509075.870000  4519.814994  1503.201343
   11946.6840  511182.910000  4503.430643  1499.372176
   11948.2370  512981.440000  4566.557621  1524.062802
   11949.7910  513968.470000  4696.191782  1572.275481
   11951.3460  516033.030000  4860.332130  1627.004794
   11952.8990  518235.120000  4993.979260  1675.256083
   11954.7670  519964.720000  5091.135871  1712.023430
   11956.3220  521892.840000  5146.800603  1736.313660
   11957.8780  523010.470000  5202.974509  1759.123165
   11959.7450  524917.620000  5312.658324  1797.450615
   11961.3010  527478.250000  5437.843856  1838.297060
   11963.1710  529273.440000  5550.539877  1877.663525
   11964.7290  531798.120000  5615.743225  1897.550689
   11966.5980  533438.370000  5655.454875  1913.956459
   11968.4700  535819.060000  5723.671840  1941.879910
   11970.0270  537316.310000  5790.403352  1972.326781
   11971.9000  539666.060000  5859.636324  2009.290231
   11973.7710  541938.370000  5903.375385  2036.772173
   11975.6440  543682.120000  5940.627324  2058.774160
   11977.5190  546681.440000  6014.385940  2087.295599
   11979.3920  549109.250000  6128.649526  2133.336999
   11981.2670  551002.620000  6284.426345  2186.899012
   11983.1410  552130.500000  6454.705704  2250.979447
   11985.0170  553188.870000  6599.490706  2295.577579
   11987.2060  554975.750000  6711.788239  2333.696332
   11989.0830  558755.120000  6781.594893  2351.335135
   11991.2730  562660.060000  6831.905639  2360.493352
   11993.1510  565442.500000  6883.729685  2371.172623
   11995.3440  567631.440000  6924.053298  2375.367910
   11997.2250  569523.940000  6911.887939  2366.082938
   11999.4170  572810.870000  6849.232433  2340.319813
   12001.2990  575249.370000  6752.080190  2307.075335
   12003.4940  577468.440000  6621.439487  2270.349516
   12005.6880  579954.940000  6487.306431  2227.142583
   12007.8860  582621.000000  6354.682160  2190.456324
   12010.0830  584274.560000  6231.561911  2151.288595
   12012.2820  585747.620000  6169.951728  2132.640779
   12014.4810  590553.250000  6217.853865  2154.515364
   12016.6820  594002.370000  6308.256363  2193.903351
   12018.8810  596077.000000  6396.166672  2232.814402
   12021.0830  599916.120000  6484.591637  2271.246604
   12023.6020  602669.810000  6548.516058  2301.192503
   12025.8040  605517.000000  6601.953820  2326.662038
   12028.0080  609075.690000  6642.899539  2346.651799
   12030.5270  610595.870000  6620.350515  2346.158516
   12032.7330  614506.620000  6629.309838  2356.184803
   12035.2570  618141.870000  6680.774970  2374.730588
   12037.7800  620848.620000  6746.752541  2408.796594
   12039.9890  623138.870000  6804.236271  2437.381724
   12042.5140  626467.690000  6875.223835  2464.485838
   12045.0400  629640.000000  6936.721298  2493.110749
   12047.5660  632814.810000  6992.728477  2520.254328
   12050.0960  635493.120000  7051.238425  2542.915518
   12052.6250  638224.000000  7141.260625  2578.099034
   12055.1540  640473.370000  7222.791724  2605.802121
   12057.6880  642069.250000  7283.832485  2625.024328
   12060.2210  649453.690000  7424.375197  2678.764103
   12062.7540  653014.620000  7519.423840  2710.021363
   12065.2880  656610.060000  7568.987647  2735.803908
   12068.1420  658523.000000  7519.054874  2724.100954
   12070.6780  662085.440000  7451.628589  2699.918564
   12073.2180  665809.440000  7443.710916  2693.255011
   12076.0730  668852.940000  7572.302750  2740.113150
   12078.6150  672573.940000  7783.406170  2810.493395
   12081.4730  674754.500000  8000.011035  2887.386943
   12084.3350  678982.560000  8209.125837  2957.802052
   12086.8780  683030.120000  8347.749305  3008.735703
   12089.7420  686803.190000  8448.879033  3049.192415
   12092.6060  688739.810000  8486.516123  3068.164701
   12095.4740  693075.870000  8498.659743  3085.656608
   12098.3400  695242.560000  8432.310304  3073.668477
   12101.2090  699163.690000  8380.477487  3062.200858
   12104.0800  702724.310000  8374.142235  3071.253095
   12106.9520  706537.500000  8439.316140  3102.822805
   12109.8250  710131.190000  8551.004211  3154.913338
   12112.6970  712942.440000  8703.199249  3220.524672
   12115.8940  716319.120000  8894.897218  3307.652972
   12118.7710  721891.370000  9048.098911  3375.299869
   12121.6500  725234.190000  9094.816387  3405.467824
   12124.8500  729418.440000  9093.042486  3416.155716
   12127.7310  731850.250000  9066.768503  3416.361229
   12130.9360  736709.560000  9119.014421  3443.089678
   12133.8190  740340.370000  9225.755097  3490.333673
   12137.0270  742887.690000  9381.014153  3550.100723
   12140.2350  748261.560000  9528.769550  3610.382405
   12143.4450  751865.940000  9538.040221  3611.186674
   12146.3370  754539.810000  9471.819675  3584.510560
   12149.5510  760770.250000  9453.106398  3582.353931
   12152.7650  762610.120000  9378.894676  3549.713577
   12155.9810  767403.560000  9257.192499  3506.594774
   12159.2000  771932.560000  9126.006445  3460.997661
   12162.4210  775749.000000  9151.318930  3473.916439
   12165.6420  778895.000000  9338.141491  3550.354823
   12169.1890  783031.500000  9590.479859  3654.316330
   12172.4150  788024.500000  9792.317804  3736.794957
   12175.6430  792080.060000  9928.659486  3798.791055
   12178.8720  795650.060000  10030.520210  3844.311280
   12182.4260  798745.690000  10181.879387  3906.345998
   12185.6580  803383.750000  10416.754247  4004.903539
   12189.2180  806769.310000  10649.125394  4101.977876
   12192.4520  811368.440000  10818.009096  4175.571162
   12196.0160  815399.060000  10919.406703  4225.687788
   12199.5790  818284.250000  10987.307799  4263.320728
   12202.8220  823509.870000  11061.720394  4303.475857
   12206.3900  827164.060000  11083.638978  4319.148840
   12209.9610  830380.750000  11076.063413  4326.341781
   12213.5340  835405.000000  11086.993197  4343.052045
   12217.1070  838264.690000  11102.428962  4368.280746
   12220.6860  845598.940000  11207.376538  4424.031042
   12224.2630  849218.690000  11227.832480  4448.301948
   12227.8450  854605.000000  11214.800441  4452.092338
   12231.4270  857178.810000  11184.272421  4452.401187
   12235.0130  862678.060000  11267.241959  4492.227018
   12238.9270  866300.940000  11399.737787  4560.577471
   12242.5160  870659.250000  11601.723716  4646.439295
   12246.1080  874375.120000  11848.229921  4756.829061
   12250.0290  879955.500000  12127.242134  4874.734971
   12253.6250  881967.370000  12308.758226  4947.158938
   12257.5500  886572.750000  12535.782896  5045.104597
   12261.1520  891089.690000  12775.318721  5144.569460
   12265.0810  895597.120000  12987.361198  5238.553282
   12269.0160  898850.060000  13082.902633  5280.052998
   12272.6230  903808.560000  13084.961165  5290.076823
   12276.5610  908898.560000  13030.522535  5271.617243
   12280.5020  912850.060000  13020.598966  5278.679857
   12284.4450  915813.060000  13082.183428  5312.262678
   12288.3910  922883.620000  13165.267842  5357.360650
   12292.3380  927392.620000  13125.855853  5354.977564
   12296.2890  929454.250000  13078.956780  5356.116002
   12300.2430  935089.310000  13154.567588  5401.773597
   12304.1980  940657.870000  13238.688533  5445.953153
   12308.1580  943368.000000  13317.320090  5495.651540
   12312.1190  946279.620000  13432.445775  5549.865020
   12316.0840  951698.810000  13583.089619  5625.602248
   12320.3800  956090.440000  13742.242885  5715.858537
   12324.3490  958260.620000  13905.894109  5794.632088
   12328.6520  965784.310000  14205.064099  5935.928304
   12332.6270  967779.560000  14401.729940  6034.738567
   12336.6040  972621.250000  14609.919946  6141.075234
   12340.9150  978194.500000  14690.610167  6190.928810
   12345.2290  982865.250000  14614.804625  6174.300090
   12349.2150  986292.560000  14580.500074  6172.186336
   12353.5360  990802.370000  14709.713967  6243.599067
   12357.8590  995252.690000  14925.432912  6346.528463
   12362.1870  1000392.500000  15151.654016  6459.975996
   12366.1830  1003606.800000  15322.396630  6544.948234
   12370.5150  1009315.700000  15543.644721  6653.439609
   12374.8510  1013818.100000  15713.383155  6745.441743
   12379.1890  1016438.900000  15769.639219  6775.969276
   12383.5320  1021991.400000  15811.418294  6810.022035
   12387.8760  1024919.300000  15852.689283  6835.585693
   12392.5600  1027345.700000  15953.460497  6895.666458
   12396.9110  1034700.700000  16171.759578  7003.275619
   12401.2650  1038159.100000  16363.550445  7099.397544
   12405.6210  1042276.100000  16524.864044  7183.046225
   12410.3170  1045370.600000  16584.669469  7227.204747
   12414.6820  1050165.600000  16643.989246  7262.888720
   12419.0490  1054708.100000  16704.820411  7309.093261
   12423.7550  1059749.300000  16818.149820  7379.811156
   12428.1290  1064138.800000  16967.998223  7459.052628
   12432.8420  1067607.900000  17142.346697  7554.812801
   12437.5600  1069202.500000  17300.204504  7639.092569
   12441.9420  1073956.600000  17542.576423  7771.893781
   12446.6660  1079303.300000  17802.448773  7911.210620
   12451.3950  1083975.400000  17938.827325  7996.047747
   12456.1250  1088775.000000  18029.719686  8056.406311
   12460.5220  1091445.300000  18130.109423  8124.279604
   12465.2610  1093640.900000  18278.028025  8214.682354
   12470.0030  1100219.100000  18465.435271  8324.595289
   12474.7480  1104645.900000  18605.348816  8410.025534
   12479.4980  1109259.100000  18730.788128  8488.985452
   12484.2500  1113199.900000  18828.712018  8553.453674
   12489.0070  1117297.100000  18938.156399  8629.446308
   12494.1070  1120996.900000  19058.108569  8699.961129
   12498.8710  1125697.300000  19132.566680  8759.991590
   12503.6400  1128646.100000  19187.538882  8801.545682
   12508.4110  1131580.400000  19300.008159  8869.613475
   12513.5270  1133466.300000  19353.005658  8917.210189
   12518.3070  1139263.600000  19497.482755  9006.315629
   12523.4320  1143654.500000  19695.478977  9114.941734
   12528.2200  1147218.900000  19893.995342  9229.097314
   12533.3520  1151142.900000  20075.005904  9334.763612
   12538.1460  1155716.300000  20211.537483  9424.955425
   12543.2880  1158802.300000  20364.562353  9510.660722
   12548.0900  1163918.800000  20588.092330  9636.882521
   12553.2390  1166490.800000  20825.146120  9774.632454
   12558.3930  1170588.300000  21036.682970  9900.891682
   12563.5510  1172609.300000  21173.760771  9991.682687
   12568.7130  1177201.800000  21376.315257  10117.980063
   12573.5360  1180325.900000  21551.401856  10224.810470
   12578.7070  1185901.400000  21747.970428  10346.143479
   12583.8810  1189049.500000  21882.068849  10436.011064
   12589.0610  1190256.100000  21983.667099  10506.393462
   12594.2440  1195323.100000  22119.770567  10604.292844
   12599.4320  1198398.900000  22141.389718  10644.714681
   12604.9720  1201074.000000  22192.500922  10697.648335
   12610.1680  1204711.600000  22326.146517  10790.114395
   12615.3690  1207899.800000  22492.286496  10902.096695
   12620.5740  1213739.500000  22710.931415  11033.594550
   12625.7840  1216777.800000  22876.072520  11140.605606
   12631.3480  1220552.500000  23055.743268  11267.146527
   12636.5660  1223334.800000  23191.917893  11369.205760
   12642.1370  1227784.500000  23415.579811  11508.776345
   12647.3640  1231080.800000  23646.775466  11645.875252
   12652.9450  1234338.500000  23899.450763  11803.483243
   12658.1840  1236336.900000  24120.670590  11940.626457
   12663.7740  1240166.600000  24338.367251  12075.274164
   12669.0200  1244498.000000  24496.579970  12182.445410
   12674.6200  1246776.900000  24618.298805  12275.136825
   12680.2280  1249929.300000  24771.536412  12388.351906
   12685.8370  1251852.100000  24898.272254  12488.081553
   12691.1020  1257892.500000  25076.520761  12603.332719
   12696.7220  1259465.500000  25156.283432  12680.108473
   12702.3490  1262797.900000  25306.545906  12791.399023
   12707.9790  1265814.900000  25481.313599  12917.205514
   12713.6130  1269793.400000  25645.586462  13039.530993
   12719.2550  1273819.300000  25773.375181  13127.383465
   12724.9010  1275920.800000  25872.675014  13227.752611
   12730.5510  1276180.900000  25962.474967  13315.637880
   12736.2080  1279841.400000  26153.772474  13442.037765
   12741.8680  1284499.400000  26419.578614  13620.959545
   12747.8890  1286238.000000  26661.910068  13785.409602
   12753.5620  1290179.100000  26900.754241  13950.378283
   12759.2370  1293898.600000  27100.091664  14091.861192
   12764.9190  1297370.800000  27321.939769  14249.865014
   12770.9620  1299906.400000  27537.274985  14415.376377
   12776.6540  1303744.600000  27733.133800  14543.417190
   12782.3510  1306944.300000  27904.531529  14676.991978
   12788.4100  1307908.400000  28070.396031  14811.065924
   12794.1190  1309917.100000  28251.770600  14938.660720
   12800.1890  1314853.400000  28481.662397  15102.777322
   12806.2660  1316712.000000  28610.077017  15220.423831
   12811.9890  1317556.300000  28716.992248  15310.587950
   12818.0770  1320624.000000  28896.388767  15457.254362
   12824.1700  1323863.400000  29112.323106  15613.458380
   12829.9100  1327829.100000  29319.758257  15751.174470
   12836.0160  1331057.500000  29504.713141  15903.417418
   12842.1270  1332136.300000  29653.144482  16025.166186
   12848.2440  1335990.600000  29895.091952  16192.435976
   12854.3660  1335973.500000  30048.553355  16314.229763
   12860.4950  1338361.900000  30234.531020  16460.546270
   12866.2690  1342868.800000  30445.022010  16625.385928
   12872.4080  1345310.100000  30628.006120  16784.736354
   12878.5550  1347209.000000  30820.508352  16927.615202
   12885.0690  1349115.500000  31030.496269  17100.997096

