# XDI/1.0
# Column.1: energy eV
# Column.2: i0
# Column.3: itrans
# Column.4: irefer
# Beamline.name: SSRL 2-3
# Beamline.notes: vert slits = 0.6mm
# Detector.I0: N2 15cm
# Detector.I1: Ar 30cm
# Detector.I2: Ar 15cm
# Element.edge: K
# Element.symbol: As
# Mono.d_spacing: 3.13550
# Mono.name: Si(111)
# Mono.notes: unfocused, detuned 75%, clockwise at E=12000eV
# Sample.formula: As2O3
# Sample.name: As2O3 arsenious oxide
# Sample.prep: powder on tape (5 layers)
# Sample.reference: GaAs powder
# Sample.temperature: 10K
# Scan.start_time: 1997-04-19 19:47:10
# ///
#    Note: mono d_spacing is nominal!
#     exafs to K16, GaAs in IR
#     413  E XMU XMUR I0
#-------------
#   energy   i0   itrans  irefer
   11634.8900  537571.310000  61044.519202  25044.008592
   11644.9080  535608.310000  61098.488578  25214.994288
   11654.9440  532987.310000  61103.528570  25367.012646
   11664.9980  529412.310000  60994.490612  25476.996380
   11675.0700  526702.310000  60959.487993  25610.993996
   11684.8620  523978.310000  60914.502968  25736.000010
   11694.9690  520475.310000  60795.480466  25844.992069
   11705.0930  518873.310000  60894.493342  26030.997757
   11714.9370  516373.310000  60876.484850  26169.993624
   11725.0950  513490.310000  60803.488179  26285.994234
   11734.9740  510709.310000  60748.510498  26414.005038
   11744.8670  507863.310000  60666.480915  26524.990771
   11755.0790  505582.310000  60642.493129  26666.997551
   11765.0090  503152.310000  60599.517285  26803.008199
   11774.9540  500626.310000  60506.508305  26913.002511
   11784.9180  497723.310000  60385.518739  27006.009632
   11794.8960  494793.310000  60218.470236  27086.986777
   11804.8950  492519.310000  60102.513821  27168.007005
   11814.9090  490071.310000  59859.485727  27208.994836
   11824.9400  488004.310000  59525.526525  27191.010920
   11834.9890  484753.310000  58814.482310  26986.990657
   11845.0570  482323.310000  57435.504467  26441.003201
   11845.3610  481918.310000  57331.523361  26386.011924
   11845.9730  482228.310000  57265.518666  26357.007373
   11846.5830  481801.310000  57103.522750  26278.011087
   11846.8890  481448.310000  57023.523373  26244.010024
   11847.4990  481435.310000  56878.526015  26186.011899
   11848.1100  481605.310000  56758.471326  26129.987984
   11848.4150  481410.310000  56686.491762  26088.996668
   11849.0270  480619.310000  56422.527439  25968.012742
   11849.6370  480234.310000  56211.486977  25869.993130
   11849.9420  479880.310000  56106.502710  25819.001643
   11850.5560  479770.310000  55900.508043  25725.004806
   11850.8600  479280.310000  55736.522073  25646.010529
   11851.4710  479544.310000  55544.488754  25559.994103
   11852.0830  479656.310000  55329.478224  25437.990017
   11852.3900  479792.310000  55249.501778  25406.999902
   11853.0000  479598.310000  54955.507284  25257.003899
   11853.6100  479581.310000  54654.494480  25117.998288
   11853.9170  479981.310000  54541.515591  25053.007135
   11854.5290  480184.310000  54187.486715  24890.992956
   11855.1400  479988.310000  53786.513077  24677.005274
   11855.4460  479526.310000  53581.494815  24581.997411
   11856.0580  479875.310000  53133.483256  24360.992848
   11856.3630  479931.310000  52909.504372  24239.002018
   11856.9760  479593.310000  52333.488096  23950.995145
   11857.5880  479257.310000  51670.480146  23623.990323
   11857.8940  479474.310000  51444.487632  23507.993594
   11858.5040  479441.310000  50678.486365  23123.994202
   11859.1180  479099.310000  49817.478866  22683.990326
   11859.4240  478279.310000  49305.512607  22426.006556
   11860.0350  478744.310000  48305.511086  21913.004104
   11860.6470  478709.310000  47132.488708  21308.994162
   11860.9550  478216.310000  46562.484419  21018.993083
   11861.5660  477862.310000  45016.479624  20230.990999
   11861.8720  478357.310000  44291.507913  19839.003300
   11862.4840  478077.310000  42325.487917  18825.995532
   11863.0980  476962.310000  40188.483444  17696.991849
   11863.4030  476628.310000  39066.485958  17116.993857
   11864.0170  476705.310000  36091.504355  15552.002387
   11864.6280  476806.310000  32677.486342  13759.994733
   11864.9350  476538.310000  30857.508824  12820.003424
   11865.5470  476355.310000  26651.489104  10703.995954
   11865.8540  476703.310000  24898.493652  9845.997287
   11866.4670  476795.310000  20065.507161  7581.002746
   11867.0780  476437.310000  15232.497682  5476.001334
   11867.3880  476226.310000  13082.496378  4589.000216
   11867.9990  476068.310000  8955.504331  2984.001999
   11868.6110  476982.310000  5509.497407  1737.998918
   11868.9190  476340.310000  4464.501383  1385.000549
   11869.5320  476050.310000  2377.500063   705.999706
   11870.1450  475941.310000  1202.499790   346.000018
   11870.4510  475953.310000   901.499998   255.999896
   11871.0640  475526.310000   615.499720   172.000002
   11871.3710  475026.310000   591.499874   165.999947
   11871.9850  474830.310000   674.500068   188.999955
   11872.5990  474640.310000   872.499913   244.000080
   11872.9050  474502.310000   989.500000   277.999903
   11873.5180  474020.310000  1287.499762   363.999847
   11874.1330  474317.310000  1657.500141   474.000230
   11874.4390  474891.310000  1840.499416   529.999591
   11875.0530  474780.310000  2338.501154   685.000433
   11875.3580  474186.310000  2581.499169   762.999658
   11875.9750  474465.310000  3144.498779   944.999866
   11876.5880  474883.310000  3666.498468  1117.999705
   11876.8940  474921.310000  3850.500451  1179.999633
   11877.5090  474161.310000  4184.501497  1295.999977
   11878.1230  473959.310000  4312.498671  1350.999210
   11878.4300  474115.310000  4288.498030  1343.999086
   11879.0440  474358.310000  4075.498068  1286.998759
   11879.3510  473770.310000  3925.499586  1241.000149
   11879.9660  473876.310000  3499.500830  1112.000158
   11880.5800  473682.310000  3079.498826   981.999839
   11880.8870  473766.310000  2910.500860   929.000672
   11881.5000  473263.310000  2659.499413   851.999716
   11882.1160  473080.310000  2573.500830   823.999927
   11882.4240  473364.310000  2579.499282   825.999842
   11883.0370  473366.310000  2673.500142   856.999905
   11883.6520  472494.310000  2829.499114   902.999485
   11883.9590  472206.310000  2912.500491   930.999990
   11884.5740  472035.310000  3084.500686   987.000031
   11884.8810  471914.310000  3144.498514  1007.999247
   11885.4960  471236.310000  3277.499185  1050.999575
   11886.1100  471438.310000  3397.501321  1089.000448
   11886.4190  471420.310000  3450.499744  1106.000189
   11887.0340  471781.310000  3580.500345  1151.999988
   11887.6480  471420.310000  3716.498918  1194.999867
   11887.9550  471298.310000  3780.499894  1216.000565
   11888.5720  471779.310000  3947.499390  1269.999254
   11888.8790  471957.310000  4019.500080  1294.000441
   11889.4930  471288.310000  4171.501446  1341.999988
   11890.1090  470973.310000  4317.499545  1385.999342
   11890.4170  471208.310000  4384.498570  1406.999282
   11891.0320  470986.310000  4569.501088  1469.000192
   11891.6480  470730.310000  4788.500622  1538.000721
   11891.9560  470472.310000  4914.500423  1579.000584
   11892.5700  470686.310000  5197.500639  1673.000739
   11892.8790  470778.310000  5312.498776  1710.998818
   11893.4950  470627.310000  5589.498151  1801.998825
   11894.1090  470191.310000  5797.499213  1876.999806
   11894.4190  470184.310000  5877.501560  1905.999927
   11895.0350  470159.310000  5992.499445  1949.000340
   11895.6490  469808.060000  6050.253841  1977.760667
   11896.2660  469771.340000  6076.513328  1991.037910
   11896.8810  469543.120000  6089.287847  1996.838414
   11897.4980  470102.440000  6111.563475  2006.156351
   11898.4220  469758.250000  6131.345381  2014.991951
   11899.0380  469458.590000  6149.637239  2020.348648
   11899.6550  469576.440000  6175.439764  2027.225475
   11900.5800  470252.810000  6229.745266  2038.620684
   11901.1950  470191.720000  6272.566032  2052.536872
   11902.1210  470141.090000  6356.887312  2075.970678
   11903.0450  470405.030000  6461.717114  2110.924682
   11903.6620  471115.470000  6530.060598  2136.397978
   11904.5870  471279.410000  6605.906317  2162.392279
   11905.5130  471212.870000  6673.262997  2187.903863
   11906.4380  471726.870000  6750.119125  2214.932996
   11907.3630  472928.370000  6828.492552  2247.485283
   11908.2910  473373.370000  6849.368395  2254.554614
   11909.2150  473653.910000  6788.757311  2238.146140
   11910.1430  473609.970000  6644.650766  2185.256329
   11911.0680  475227.530000  6440.052549  2117.884472
   11912.3030  475953.590000  6115.957564  2008.032425
   11913.2290  476498.220000  5887.373586  1929.698914
   11914.1560  476577.310000  5669.301713  1858.887063
   11915.3920  477530.940000  5478.733459  1794.592459
   11916.3180  478583.090000  5408.673359  1772.818836
   11917.5560  478919.750000  5376.120658  1768.564228
   11918.7930  479856.940000  5400.075947  1786.829853
   11919.7190  480709.620000  5413.540891  1795.612855
   11920.9570  482413.840000  5379.510231  1794.916199
   11922.1930  483362.560000  5258.990109  1758.738893
   11923.4320  484202.810000  5086.972439  1706.080864
   11924.6690  484935.560000  4904.469912  1644.943465
   11925.9080  485390.840000  4748.469816  1594.323362
   11927.1460  487010.620000  4652.980257  1564.224118
   11928.3840  487974.940000  4616.999578  1549.645278
   11929.6230  489229.750000  4624.522931  1549.583547
   11930.8610  490768.090000  4625.556529  1548.041672
   11932.4110  492457.970000  4597.097458  1534.020577
   11933.6510  493895.310000  4590.144806  1528.517898
   11934.8910  495095.220000  4622.700729  1534.536081
   11936.4410  495886.620000  4697.767105  1555.072723
   11937.9920  497182.530000  4757.337782  1571.128612
   11939.2320  498347.970000  4761.418214  1573.704774
   11940.7840  499419.940000  4706.004775  1556.798245
   11942.3360  499631.410000  4607.100252  1526.413165
   11943.5770  500972.370000  4538.701463  1506.546507
   11945.1300  503821.870000  4475.811934  1490.199156
   11946.6840  507014.910000  4471.430641  1490.371491
   11948.2370  509068.440000  4537.555665  1514.062548
   11949.7910  510679.470000  4671.191289  1560.275071
   11951.3460  511645.030000  4826.333568  1615.005050
   11952.8990  513843.120000  4956.981589  1662.256480
   11954.7670  515034.720000  5048.137260  1697.024318
   11956.3220  517569.840000  5110.802682  1721.313174
   11957.8780  519348.470000  5171.977361  1744.123407
   11959.7450  521454.620000  5282.657325  1783.451002
   11961.3010  522932.280000  5397.845929  1823.298042
   11963.1710  524330.440000  5504.539394  1855.663096
   11964.7290  527285.120000  5567.746683  1880.552143
   11966.5980  529300.370000  5610.456439  1895.955775
   11968.4700  531225.060000  5677.674746  1922.881367
   11970.0270  533691.310000  5754.398970  1959.324166
   11971.9000  535733.060000  5818.636841  1993.288953
   11973.7710  537176.370000  5853.375342  2018.772142
   11975.6440  539704.120000  5900.629638  2044.775623
   11977.5190  541895.440000  5966.384113  2073.294873
   11979.3920  544023.250000  6072.649404  2112.337142
   11981.2670  546630.620000  6237.424089  2172.899153
   11983.1410  548698.500000  6414.705637  2232.980210
   11985.0170  550203.870000  6568.495969  2284.579274
   11987.2060  550873.750000  6665.791185  2315.699158
   11989.0830  554576.120000  6731.594731  2336.336430
   11991.2730  558722.060000  6786.905814  2344.495266
   11993.1510  561219.500000  6836.726906  2352.171854
   11995.3440  562823.440000  6867.052489  2353.369129
   11997.2250  564346.940000  6850.887488  2344.082821
   11999.4170  567817.870000  6791.234360  2319.321569
   12001.2990  570935.370000  6705.083807  2288.075373
   12003.4940  573602.440000  6578.439394  2253.348975
   12005.6880  576666.940000  6453.308034  2214.144000
   12007.8860  578525.000000  6313.680335  2170.457036
   12010.0830  580503.560000  6194.562764  2133.289029
   12012.2820  582118.620000  6135.952000  2120.640661
   12014.4810  585326.250000  6167.850414  2139.513323
   12016.6820  590086.370000  6274.256024  2182.903597
   12018.8810  592601.000000  6367.171412  2221.814763
   12021.0830  595235.120000  6437.591549  2254.245861
   12023.6020  598454.810000  6507.517302  2288.194358
   12025.8040  601672.000000  6566.956258  2315.663942
   12028.0080  604252.690000  6594.899000  2331.650699
   12030.5270  607499.870000  6592.350497  2334.157381
   12032.7330  610315.620000  6589.307326  2340.183238
   12035.2570  613833.870000  6639.776621  2365.731607
   12037.7800  616532.620000  6703.751083  2393.798016
   12039.9890  619226.870000  6766.234417  2421.382640
   12042.5140  623086.690000  6844.221081  2454.486706
   12045.0400  625414.000000  6895.719318  2477.110675
   12047.5660  628175.810000  6944.729868  2498.253979
   12050.0960  630179.120000  6998.242852  2522.917819
   12052.6250  633945.000000  7098.263665  2560.099692
   12055.1540  636115.370000  7178.790726  2587.802206
   12057.6880  638539.250000  7249.830910  2612.023337
   12060.2210  645234.690000  7381.376295  2655.763306
   12062.7540  648111.620000  7468.423514  2691.021697
   12065.2880  651791.060000  7517.984252  2713.803212
   12068.1420  655741.000000  7487.057730  2710.103684
   12070.6780  658856.440000  7415.628003  2682.917081
   12073.2180  662322.440000  7406.711190  2681.256443
   12076.0730  664518.940000  7534.303409  2724.114389
   12078.6150  669483.940000  7759.401282  2801.489323
   12081.4730  670891.500000  7965.011801  2872.387096
   12084.3350  675409.560000  8171.122256  2944.801058
   12086.8780  680134.120000  8318.750090  2997.738029
   12089.7420  683593.190000  8413.873825  3033.190359
   12092.6060  685731.810000  8451.514058  3058.163596
   12095.4740  690305.870000  8465.658379  3072.657398
   12098.3400  692124.560000  8393.309828  3059.669610
   12101.2090  696252.690000  8345.476494  3053.201325
   12104.0800  699544.310000  8338.139728  3061.252474
   12106.9520  703793.500000  8409.314741  3096.821891
   12109.8250  707420.190000  8522.006497  3147.914334
   12112.6970  710784.440000  8680.196835  3215.523597
   12115.8940  715248.120000  8888.892855  3307.651111
   12118.7710  717547.370000  8995.099836  3360.300036
   12121.6500  722779.190000  9066.821553  3397.469764
   12124.8500  725402.440000  9043.041713  3402.155123
   12127.7310  729621.250000  9037.770916  3408.362136
   12130.9360  734247.560000  9092.012192  3439.088781
   12133.8190  737101.370000  9188.754752  3475.333435
   12137.0270  739448.690000  9338.007456  3534.097968
   12140.2350  745065.560000  9492.767705  3595.381893
   12143.4450  748474.940000  9497.045241  3594.188455
   12146.3370  753371.810000  9460.818273  3577.510178
   12149.5510  756446.250000  9405.103616  3556.352994
   12152.7650  759795.120000  9343.891535  3537.712451
   12155.9810  763252.560000  9208.196264  3485.596131
   12159.2000  767559.560000  9078.001589  3437.995778
   12162.4210  772828.000000  9125.315864  3461.915381
   12165.6420  774657.000000  9294.142386  3532.354871
   12169.1890  780720.500000  9571.473949  3645.314380
   12172.4150  785223.500000  9761.317593  3724.794903
   12175.6430  788656.060000  9891.663255  3782.792551
   12178.8720  793096.060000  10005.514082  3832.308830
   12182.4260  795982.690000  10156.881331  3896.346968
   12185.6580  801141.750000  10392.754677  3989.903710
   12189.2180  803645.310000  10617.132980  4085.980872
   12192.4520  808690.440000  10791.018833  4161.574959
   12196.0160  813122.060000  10903.406175  4212.687620
   12199.5790  816084.250000  10969.312454  4246.322852
   12202.8220  821493.870000  11042.720974  4288.476216
   12206.3900  823574.060000  11045.636673  4295.147851
   12209.9610  828714.750000  11060.055417  4312.338389
   12213.5340  833840.000000  11073.994674  4329.052680
   12217.1070  835730.690000  11078.434936  4349.283070
   12220.6860  841314.940000  11156.374880  4393.030345
   12224.2630  845824.690000  11182.836146  4421.303296
   12227.8450  850564.000000  11165.801381  4427.092548
   12231.4270  853179.810000  11135.267485  4422.399502
   12235.0130  858023.060000  11210.243691  4470.227828
   12238.9270  862179.940000  11350.729284  4532.574027
   12242.5160  867373.250000  11564.723553  4632.439372
   12246.1080  869294.120000  11792.226297  4727.827648
   12250.0290  874383.500000  12063.243072  4841.735189
   12253.6250  879912.370000  12284.758197  4930.158921
   12257.5500  883090.750000  12495.779783  5020.103093
   12261.1520  887881.690000  12735.310658  5118.566412
   12265.0810  891242.120000  12930.361236  5207.553304
   12269.0160  892901.060000  13000.902520  5245.053173
   12272.6230  899745.560000  13028.965734  5265.078274
   12276.5610  904932.560000  12978.529583  5249.619625
   12280.5020  906853.060000  12940.597082  5245.679211
   12284.4450  912443.060000  13040.171177  5300.257390
   12288.3910  917972.620000  13102.257773  5335.356282
   12292.3380  920702.620000  13035.860971  5314.979719
   12296.2890  925904.250000  13041.959682  5336.116961
   12300.2430  929528.310000  13093.569920  5373.774586
   12304.1980  934303.870000  13162.695471  5414.955854
   12308.1580  938907.000000  13276.312506  5473.648154
   12312.1190  942102.620000  13391.446832  5533.865668
   12316.0840  947074.810000  13536.098597  5610.605730
   12320.3800  951304.440000  13691.238976  5695.856824
   12324.3490  955865.620000  13888.905255  5789.636670
   12328.6520  960302.310000  14141.067337  5913.929149
   12332.6270  964301.560000  14367.734995  6018.740796
   12336.6040  967703.250000  14554.911261  6112.071685
   12340.9150  972519.500000  14616.603765  6156.925998
   12345.2290  977413.250000  14544.799996  6142.298012
   12349.2150  980944.560000  14515.498551  6146.185492
   12353.5360  985870.370000  14653.714831  6215.599468
   12357.8590  989381.690000  14856.436303  6310.530163
   12362.1870  993818.500000  15065.654164  6417.975944
   12366.1830  998806.810000  15266.400634  6515.949735
   12370.5150  1002967.700000  15464.631596  6620.433718
   12374.8510  1007967.100000  15638.390322  6712.445289
   12379.1890  1011912.900000  15707.648808  6750.973245
   12383.5320  1015343.400000  15719.408505  6771.017421
   12387.8760  1019192.200000  15775.681862  6805.582503
   12392.5600  1021280.700000  15871.462843  6856.667297
   12396.9110  1027690.700000  16071.757278  6961.274847
   12401.2650  1032196.100000  16276.558557  7063.401592
   12405.6210  1036778.100000  16440.851829  7146.041040
   12410.3170  1040306.600000  16508.670973  7190.205527
   12414.6820  1044950.600000  16569.984410  7231.886223
   12419.0490  1049634.100000  16631.822965  7275.093798
   12423.7550  1054910.300000  16746.160676  7347.815944
   12428.1290  1057923.800000  16870.990139  7422.049167
   12432.8420  1061172.900000  17045.343958  7516.811045
   12437.5600  1064622.500000  17238.212132  7627.095887
   12441.9420  1070976.600000  17501.563529  7763.887859
   12446.6660  1074591.300000  17729.442616  7881.207926
   12451.3950  1079604.400000  17867.831206  7966.049166
   12456.1250  1084239.000000  17953.725415  8032.408634
   12460.5220  1085349.300000  18037.107248  8086.278797
   12465.2610  1088769.900000  18207.012205  8194.675432
   12470.0030  1094753.100000  18383.437757  8291.596544
   12474.7480  1098276.900000  18510.345205  8372.024040
   12479.4980  1102858.100000  18632.779379  8450.981275
   12484.2500  1107425.900000  18738.712895  8509.454098
   12489.0070  1111520.100000  18850.167823  8584.451630
   12494.1070  1114395.900000  18957.104015  8648.958796
   12498.8710  1116012.300000  18981.563470  8678.990017
   12503.6400  1121595.100000  19084.531685  8745.542548
   12508.4110  1126264.400000  19223.021450  8832.619190
   12513.5270  1128372.300000  19280.002730  8879.209482
   12518.3070  1133118.600000  19407.487271  8955.317889
   12523.4320  1137811.500000  19605.476873  9068.940644
   12528.2200  1142097.900000  19814.997755  9190.099041
   12533.3520  1145391.900000  19980.007092  9294.764905
   12538.1460  1149304.300000  20111.525964  9376.950296
   12543.2880  1152557.300000  20273.558329  9476.658656
   12548.0900  1157994.800000  20497.094976  9605.883426
   12553.2390  1161482.800000  20749.138830  9743.629079
   12558.3930  1163443.300000  20926.687312  9857.892953
   12563.5510  1166483.300000  21083.753657  9956.679924
   12568.7130  1170040.800000  21266.326345  10062.984584
   12573.5360  1174234.900000  21462.389239  10175.804205
   12578.7070  1177973.400000  21622.983141  10287.150409
   12583.8810  1182983.500000  21780.060958  10380.007666
   12589.0610  1186190.100000  21920.666188  10479.392958
   12594.2440  1191258.100000  22049.771842  10568.293660
   12599.4320  1194884.900000  22088.390235  10617.715097
   12604.9720  1198163.000000  22146.507952  10678.652226
   12610.1680  1200511.600000  22257.144947  10767.113888
   12615.3690  1203565.800000  22426.289960  10874.097985
   12620.5740  1210117.500000  22653.916283  11018.587741
   12625.7840  1213439.800000  22816.076916  11123.607096
   12631.3480  1216474.500000  22986.732467  11237.141534
   12636.5660  1219897.800000  23142.907538  11341.200577
   12642.1370  1221938.500000  23318.588009  11457.780411
   12647.3640  1226651.800000  23570.775605  11616.875470
   12652.9450  1228733.500000  23806.466444  11766.490966
   12658.1840  1231158.900000  24026.663670  11897.622615
   12663.7740  1234913.600000  24243.372646  12033.276902
   12669.0200  1239764.000000  24409.595615  12140.453222
   12674.6200  1242897.900000  24543.301070  12244.137465
   12680.2280  1244650.300000  24668.543412  12334.355340
   12685.8370  1246239.100000  24794.269923  12428.080577
   12691.1020  1252780.500000  24978.532600  12551.339086
   12696.7220  1255617.500000  25078.270710  12638.101282
   12702.3490  1256439.900000  25180.541274  12726.395527
   12707.9790  1258706.900000  25346.311161  12846.204565
   12713.6130  1263407.400000  25513.574291  12972.524692
   12719.2550  1267979.300000  25646.364071  13077.377251
   12724.9010  1269918.800000  25744.660346  13161.745323
   12730.5510  1274852.900000  25936.469793  13294.635106
   12736.2080  1276945.400000  26094.774894  13413.039069
   12741.8680  1279047.400000  26298.577785  13549.958182
   12747.8890  1283813.000000  26605.922331  13754.415984
   12753.5620  1284765.100000  26787.736220  13886.368549
   12759.2370  1288045.600000  26978.096871  14031.863527
   12764.9190  1290739.800000  27173.923574  14178.857141
   12770.9620  1295021.400000  27429.292155  14343.385556
   12776.6540  1298539.600000  27625.148278  14481.424039
   12782.3510  1299539.300000  27749.507604  14591.979027
   12788.4100  1303222.400000  27969.405319  14750.070252
   12794.1190  1307236.100000  28196.767395  14912.658857
   12800.1890  1307735.400000  28331.668803  15020.780634
   12806.2660  1310922.000000  28479.085775  15156.428804
   12811.9890  1313605.300000  28630.992170  15263.587247
   12818.0770  1316798.000000  28814.401409  15406.261398
   12824.1700  1317385.400000  28958.341398  15530.468338
   12829.9100  1321716.100000  29178.765825  15684.179780
   12836.0160  1323150.500000  29315.691369  15809.406552
   12842.1270  1325850.300000  29509.146568  15962.167139
   12848.2440  1330905.600000  29770.110647  16131.446920
   12854.3660  1331923.500000  29946.558717  16283.232820
   12860.4950  1336081.900000  30164.527702  16442.544533
   12866.2690  1338112.800000  30330.006684  16576.377539
   12872.4080  1340455.100000  30502.006311  16725.736855
   12878.5550  1342355.000000  30701.509203  16870.614358
   12885.0690  1341871.500000  30862.490916  17013.995335

