# XDI/1.0
# Column.1: energy eV
# Column.2: i0
# Column.3: itrans
# Column.4: irefer
# Beamline.name: SSRL 2-3
# Beamline.notes: vert slits = 0.6mm
# Detector.I0: N2 15cm
# Detector.I1: Ar 30cm
# Detector.I2: Ar 15cm
# Element.edge: K
# Element.symbol: As
# Mono.d_spacing: 3.13550
# Mono.name: Si(111)
# Mono.notes: unfocused, detuned 75%, clockwise at E=12000eV
# Sample.formula: As2O3
# Sample.name: As2O3 arsenious oxide
# Sample.prep: powder on tape (2 layers)
# Sample.reference: GaAs powder
# Sample.temperature: 100K
# Scan.start_time: 1997-04-19 23:43:03
# ///
#    Note: mono d_spacing is nominal!
#     exafs to K16, GaAs in IR
#     413  E XMU XMUR I0
#-------------
#   energy   i0   itrans  irefer
   11634.8900  511079.310000  94035.538845  38347.014792
   11644.9080  508718.310000  93945.464112  38537.983713
   11654.9440  505696.310000  93732.530977  38691.011468
   11664.9980  503504.310000  93663.471895  38871.987370
   11675.0700  501190.310000  93586.476315  39078.990266
   11684.8620  498780.310000  93428.528067  39241.012546
   11694.9690  495890.310000  93229.458780  39387.982342
   11705.0930  493232.310000  93090.513203  39561.003782
   11714.9370  490977.310000  92979.488486  39746.993973
   11725.0950  488754.310000  92887.485713  39927.991915
   11734.9740  486190.310000  92716.470456  40086.985544
   11744.8670  483784.310000  92586.483724  40256.994570
   11755.0790  481241.310000  92408.487297  40415.995236
   11765.0090  478940.310000  92278.481320  40601.989825
   11774.9540  476613.310000  92129.527203  40748.013550
   11784.9180  474270.310000  91971.471210  40913.988980
   11794.8960  471781.310000  91764.503611  41051.002291
   11804.8950  469201.310000  91507.497495  41169.998888
   11814.9090  466684.310000  91247.540015  41254.018795
   11824.9400  464498.310000  90983.477120  41357.989528
   11834.9890  462054.310000  90517.521372  41317.008294
   11845.0570  459633.310000  89695.537567  41055.015940
   11845.3610  459052.310000  89562.541478  40989.017653
   11845.9730  458917.310000  89478.470326  40961.984994
   11846.5830  459022.310000  89458.498564  40950.000174
   11846.8890  458778.310000  89395.478840  40922.990034
   11847.4990  458501.310000  89290.504428  40868.003601
   11848.1100  458275.310000  89160.500059  40802.000703
   11848.4150  458111.310000  89107.471798  40784.988693
   11849.0270  457784.310000  88985.473234  40720.987964
   11849.6370  457116.310000  88781.461931  40622.982024
   11849.9420  457236.310000  88756.471763  40600.985794
   11850.5560  457493.310000  88739.513325  40598.006388
   11850.8600  457679.310000  88697.503400  40573.000877
   11851.4710  457187.310000  88514.481875  40474.990936
   11852.0830  457377.310000  88430.477108  40423.988111
   11852.3900  457786.310000  88455.491374  40434.994203
   11853.0000  457730.310000  88304.508737  40346.004465
   11853.6100  457413.310000  88110.471085  40246.988469
   11853.9170  457352.310000  88010.490089  40188.995442
   11854.5290  457643.310000  87872.515935  40091.008473
   11855.1400  457466.310000  87641.466048  39951.984384
   11855.4460  457209.310000  87476.509529  39859.002716
   11856.0580  457199.310000  87240.478199  39719.991403
   11856.3630  456936.310000  87058.474690  39615.989648
   11856.9760  457026.310000  86749.526479  39427.011811
   11857.5880  456520.310000  86297.462096  39147.982547
   11857.8940  456676.310000  86194.541045  39071.017304
   11858.5040  456807.310000  85775.520836  38802.010443
   11859.1180  456457.310000  85207.476283  38451.991140
   11859.4240  456153.310000  84849.488141  38229.992791
   11860.0350  456838.310000  84299.465189  37828.985496
   11860.6470  456118.310000  83409.501323  37249.001072
   11860.9550  456030.310000  83012.506453  36988.001512
   11861.5660  455577.310000  81890.535938  36213.016567
   11861.8720  455622.310000  81280.505152  35766.002765
   11862.4840  455514.310000  79800.528898  34679.010952
   11863.0980  454968.310000  77838.468925  33204.986757
   11863.4030  454599.310000  76819.490737  32422.995010
   11864.0170  454226.310000  74125.496395  30355.998861
   11864.6280  454206.310000  70660.486157  27769.995024
   11864.9350  454080.310000  68445.518379  26209.008215
   11865.5470  454328.310000  63180.523834  22839.011088
   11865.8540  454373.310000  60493.512561  21299.000120
   11866.4670  454504.310000  53198.510430  17553.009146
   11867.0780  454555.310000  44910.499100  13927.002762
   11867.3880  454319.310000  40552.493750  12220.993808
   11867.9990  454093.310000  32046.491428  9181.996876
   11868.6110  454205.310000  24801.504595  6833.003449
   11868.9190  453943.310000  22386.505010  6095.003410
   11869.5320  453578.310000  18432.491206  4938.995319
   11870.1450  452988.310000  17061.497547  4559.998613
   11870.4510  453290.310000  17250.494007  4622.999705
   11871.0640  452874.310000  18868.495484  5106.997334
   11871.3710  452511.310000  19842.493161  5388.999560
   11871.9850  452306.310000  22542.504754  6188.004298
   11872.5990  452242.310000  25249.494110  7002.996440
   11872.9050  452082.310000  26565.496906  7415.002146
   11873.5180  451876.310000  29127.492626  8235.997552
   11874.1330  452082.310000  31650.510089  9088.003663
   11874.4390  452233.310000  32760.490101  9468.999188
   11875.0530  451917.310000  35103.513340  10323.999368
   11875.3580  451815.310000  36238.514515  10753.007578
   11875.9750  452000.310000  38244.504076  11533.996199
   11876.5880  452383.310000  39625.500040  12108.005573
   11876.8940  451666.310000  39921.485193  12264.999721
   11877.5090  451504.310000  40142.511855  12457.002552
   11878.1230  451916.310000  39615.482252  12386.993463
   11878.4300  451917.310000  39089.512973  12263.007626
   11879.0440  451426.310000  37729.494951  11891.004002
   11879.3510  451345.310000  37084.485466  11711.996995
   11879.9660  451432.310000  35722.489168  11327.002072
   11880.5800  451474.310000  34752.498615  11058.003584
   11880.8870  451348.310000  34455.490043  10973.994609
   11881.5000  450935.310000  34284.484072  10933.996632
   11882.1160  450986.310000  34612.503315  11038.001316
   11882.4240  451104.310000  34859.496580  11120.003447
   11883.0370  450395.310000  35471.503783  11301.999577
   11883.6520  449668.310000  36102.503866  11504.004844
   11883.9590  449723.310000  36407.490156  11610.995383
   11884.5740  449596.310000  36929.514831  11775.005315
   11884.8810  449294.310000  37100.489064  11835.993103
   11885.4960  449201.310000  37495.508001  11974.006067
   11886.1100  449230.310000  37919.507753  12119.002752
   11886.4190  449643.310000  38172.510037  12202.997570
   11887.0340  449990.310000  38691.504315  12377.001704
   11887.6480  449541.310000  39165.480204  12532.994814
   11887.9550  449856.310000  39428.512444  12617.001384
   11888.5720  449706.310000  39931.509549  12770.996804
   11888.8790  449533.310000  40143.516914  12841.010002
   11889.4930  449228.310000  40602.483879  12983.992389
   11890.1090  449605.310000  41134.496856  13140.001261
   11890.4170  449415.310000  41365.509379  13211.008071
   11891.0320  449353.310000  41984.498225  13404.995825
   11891.6480  449027.310000  42645.497933  13623.996820
   11891.9560  448987.310000  43018.515866  13741.007698
   11892.5700  448967.310000  43691.478315  13981.990083
   11892.8790  448694.310000  43932.520505  14070.013517
   11893.4950  448400.310000  44403.503880  14270.998236
   11894.1090  448486.310000  44734.506310  14411.005090
   11894.4190  448264.310000  44824.507673  14475.000183
   11895.0350  448040.310000  44926.517295  14555.998927
   11895.6490  447845.060000  44981.231473  14618.755453
   11896.2660  447850.340000  45026.495892  14666.032624
   11896.8810  448162.120000  45088.266301  14706.830445
   11897.4980  447511.440000  45082.543146  14718.145225
   11898.4220  447762.250000  45179.362449  14729.000885
   11899.0380  447976.590000  45271.648543  14741.357467
   11899.6550  448051.440000  45350.447638  14756.225289
   11900.5800  448078.810000  45522.746865  14786.626126
   11901.1950  447959.720000  45653.547628  14820.529051
   11902.1210  448383.090000  45922.903458  14903.975339
   11903.0450  448920.030000  46190.713204  15003.923971
   11903.6620  448478.470000  46276.055889  15044.397698
   11904.5870  448939.410000  46479.898756  15139.389663
   11905.5130  449408.870000  46698.268971  15221.898730
   11906.4380  450332.870000  46914.135209  15309.935863
   11907.3630  450264.370000  46968.487549  15342.486865
   11908.2910  450720.370000  46940.372452  15348.551811
   11909.2150  451378.910000  46735.738108  15285.140418
   11910.1430  452304.970000  46440.627310  15182.245178
   11911.0680  452524.530000  45951.062506  15006.883136
   11912.3030  453120.590000  45288.959953  14766.030307
   11913.2290  453978.220000  44904.374756  14629.692895
   11914.1560  455078.310000  44603.285134  14518.874811
   11915.3920  455497.940000  44299.712810  14434.586892
   11916.3180  455843.090000  44221.657131  14433.814016
   11917.5560  456509.750000  44251.136643  14504.574145
   11918.7930  457314.940000  44311.059684  14604.830062
   11919.7190  458516.620000  44348.528976  14661.610390
   11920.9570  459268.840000  44158.513807  14653.918098
   11922.1930  460218.560000  43850.999277  14578.742974
   11923.4320  461191.810000  43487.956175  14483.079402
   11924.6690  462531.560000  43157.481777  14381.947762
   11925.9080  463596.840000  42894.486387  14311.326622
   11927.1460  464358.620000  42757.992699  14262.235097
   11928.3840  465277.940000  42764.997281  14258.638698
   11929.6230  466764.750000  42870.518851  14273.581533
   11930.8610  468148.090000  42903.554479  14260.046523
   11932.4110  469592.970000  42918.084972  14222.017589
   11933.6510  470869.310000  43029.140923  14215.523647
   11934.8910  471875.220000  43214.694429  14238.528803
   11936.4410  473119.620000  43478.747388  14285.060243
   11937.9920  474514.530000  43648.339455  14327.134250
   11939.2320  475105.970000  43627.420965  14320.711899
   11940.7840  475348.940000  43467.005014  14289.802127
   11942.3360  476418.410000  43321.085552  14283.406526
   11943.5770  479262.370000  43391.700615  14316.549743
   11945.1300  481859.870000  43496.798846  14387.191702
   11946.6840  484216.910000  43772.421260  14493.365130
   11948.2370  485172.440000  44134.569936  14642.062418
   11949.7910  487297.470000  44706.180486  14856.266429
   11951.3460  489194.030000  45261.337902  15067.004193
   11952.8990  490813.120000  45719.981960  15211.252414
   11954.7670  492181.720000  46017.142858  15369.023119
   11956.3220  493330.840000  46295.789805  15486.304056
   11957.8780  495092.470000  46649.982549  15630.131430
   11959.7450  497433.620000  47155.663596  15809.454080
   11961.3010  499397.280000  47591.821597  15945.297071
   11963.1710  501207.440000  47978.551500  16061.676089
   11964.7290  503657.160000  48302.764667  16175.565458
   11966.5980  505599.340000  48603.451041  16290.946718
   11968.4700  506738.090000  48872.666960  16447.874882
   11970.0270  508801.310000  49220.420426  16647.325730
   11971.9000  511520.090000  49601.638192  16883.281320
   11973.7710  513671.340000  49891.400069  17075.772476
   11975.6440  515830.160000  50207.607750  17257.771504
   11977.5190  517076.470000  50521.388163  17397.295700
   11979.3920  519543.280000  51020.632919  17585.331516
   11981.2670  521786.620000  51579.418692  17799.898061
   11983.1410  523199.470000  52073.687726  17964.970656
   11985.0170  524682.870000  52491.487990  18105.577191
   11987.2060  526379.750000  52823.803365  18181.705758
   11989.0830  530234.120000  53265.596028  18283.328704
   11991.2730  533707.060000  53684.918333  18356.506910
   11993.1510  535739.500000  53934.752851  18374.172967
   11995.3440  537514.440000  54114.037466  18372.364840
   11997.2250  540150.940000  54297.903630  18392.088862
   11999.4170  543060.870000  54372.222797  18404.319879
   12001.2990  545642.370000  54388.066345  18415.077550
   12003.4940  548122.440000  54334.462419  18442.350780
   12005.6880  550870.940000  54282.318787  18463.144448
   12007.8860  552722.000000  54135.662393  18456.454794
   12010.0830  554409.560000  54035.578547  18472.288526
   12012.2820  556489.620000  54109.973302  18543.651963
   12014.4810  559751.250000  54440.833528  18730.505195
   12016.6820  564021.370000  54953.267424  18957.907766
   12018.8810  567058.000000  55318.179143  19126.821008
   12021.0830  568057.120000  55476.581516  19249.247654
   12023.6020  571783.810000  55901.542036  19470.197544
   12025.8040  574690.000000  56215.963521  19636.670557
   12028.0080  576534.690000  56409.890768  19745.655873
   12030.5270  580154.870000  56703.338277  19914.160969
   12032.7330  583724.620000  57025.317194  20061.194568
   12035.2570  586208.870000  57369.749919  20236.727762
   12037.7800  589409.620000  57801.769642  20438.806881
   12039.9890  591706.870000  58166.254107  20610.390879
   12042.5140  594606.690000  58580.223797  20808.491774
   12045.0400  597273.000000  58963.717393  20979.112404
   12047.5660  599732.810000  59347.751764  21168.267396
   12050.0960  602994.120000  59827.262124  21378.921189
   12052.6250  605822.000000  60296.268137  21548.112238
   12055.1540  607144.370000  60589.802578  21628.796641
   12057.6880  610750.250000  61109.853371  21785.031804
   12060.2210  616088.690000  61777.358526  22019.753359
   12062.7540  618750.620000  62136.421581  22183.024094
   12065.2880  621827.060000  62463.976557  22342.797631
   12068.1420  626167.000000  62801.069820  22510.100255
   12070.6780  629252.440000  63024.624282  22592.918391
   12073.2180  632208.440000  63365.728154  22701.253651
   12076.0730  633400.940000  63774.321063  22817.131107
   12078.6150  637788.940000  64523.429994  23066.501501
   12081.4730  640410.500000  65157.041364  23263.401556
   12084.3350  644787.560000  65905.104594  23525.804868
   12086.8780  648843.120000  66514.765576  23747.730351
   12089.7420  653242.190000  67118.851356  23999.186855
   12092.6060  654957.810000  67347.502607  24157.160117
   12095.4740  657261.870000  67562.664052  24310.649942
   12098.3400  661319.560000  67888.331558  24519.682745
   12101.2090  662153.690000  67911.452610  24611.201605
   12104.0800  667774.310000  68534.156578  24918.269696
   12106.9520  669192.500000  68822.295961  25098.818207
   12109.8250  674124.190000  69533.965964  25436.912118
   12112.6970  675342.440000  69918.192549  25673.514101
   12115.8940  682083.120000  70891.924504  26137.661073
   12118.7710  684761.370000  71306.066832  26384.288822
   12121.6500  689835.190000  71875.806073  26682.465158
   12124.8500  691992.440000  72115.069495  26878.167251
   12127.7310  695823.250000  72530.754864  27106.357025
   12130.9360  699747.560000  73037.984499  27355.079710
   12133.8190  704320.370000  73642.722322  27612.319275
   12137.0270  704959.690000  73858.021646  27709.104012
   12140.2350  711970.560000  74630.745639  27995.373440
   12143.4450  713885.940000  74719.059114  28005.194244
   12146.3370  719027.810000  75096.806585  28159.504512
   12149.5510  722566.250000  75297.136883  28237.368117
   12152.7650  726499.120000  75531.914211  28328.721153
   12155.9810  729093.560000  75580.178826  28370.590532
   12159.2000  733566.560000  75946.970220  28534.983806
   12162.4210  737672.000000  76527.356741  28789.933113
   12165.6420  739659.000000  77038.112673  29015.343294
   12169.1890  744311.500000  77888.446505  29409.305269
   12172.4150  749080.500000  78683.340891  29775.805101
   12175.6430  753205.060000  79395.644752  30098.785279
   12178.8720  757352.060000  80123.501896  30433.306523
   12182.4260  760387.690000  80802.864904  30721.339832
   12185.6580  764825.750000  81622.750651  31076.901622
   12189.2180  768194.310000  82334.128759  31404.980939
   12192.4520  772597.440000  83028.019631  31756.576468
   12196.0160  776443.060000  83625.400766  32061.685236
   12199.5790  779202.250000  84065.280002  32309.313745
   12202.8220  783930.870000  84624.755367  32605.488739
   12206.3900  787718.060000  85076.617595  32849.142266
   12209.9610  791177.750000  85442.074753  33077.343383
   12213.5340  795871.000000  85947.024512  33387.063761
   12217.1070  800457.690000  86480.389441  33693.265365
   12220.6860  804380.940000  86957.366902  34012.025829
   12224.2630  807661.690000  87308.800938  34261.290854
   12227.8450  812500.000000  87819.793542  34552.089094
   12231.4270  816510.810000  88298.237916  34828.389755
   12235.0130  820041.060000  88827.244660  35125.227770
   12238.9270  823817.940000  89493.729278  35475.575971
   12242.5160  828035.250000  90282.688036  35868.426575
   12246.1080  831588.120000  91042.212280  36226.817887
   12250.0290  835806.500000  91909.199430  36607.715601
   12253.6250  840530.370000  92779.720373  36959.143967
   12257.5500  844538.750000  93603.766245  37307.098630
   12261.1520  848252.690000  94377.299694  37652.564830
   12265.0810  850798.120000  94949.376786  37931.559635
   12269.0160  854764.060000  95569.858018  38235.036367
   12272.6230  860481.560000  96268.983609  38579.088695
   12276.5610  865748.560000  96865.509845  38876.611382
   12280.5020  868239.060000  97203.633406  39081.694714
   12284.4450  872514.060000  97751.130944  39383.240924
   12288.3910  877418.620000  98326.267612  39686.358352
   12292.3380  881453.620000  98744.863337  39964.980598
   12296.2890  885115.250000  99174.989697  40251.129377
   12300.2430  889164.310000  99672.523188  40553.757680
   12304.1980  892617.870000  100130.723987  40840.962972
   12308.1580  897193.000000  100747.360358  41204.670046
   12312.1190  901103.620000  101326.427074  41548.854700
   12316.0840  905454.810000  101984.044028  41914.581349
   12320.3800  908373.440000  102563.238733  42270.856272
   12324.3490  913612.620000  103430.889181  42731.628157
   12328.6520  916658.310000  104107.059257  43134.928959
   12332.6270  921483.560000  104994.706697  43635.731148
   12336.6040  926369.250000  105816.865212  44096.054585
   12340.9150  929834.500000  106430.651489  44473.945055
   12345.2290  933557.250000  107048.744782  44856.274996
   12349.2150  937330.560000  107669.462909  45202.170496
   12353.5360  942530.370000  108545.684712  45652.585442
   12357.8590  946051.690000  109277.466081  46066.541618
   12362.1870  948999.500000  109938.626782  46462.966305
   12366.1830  954474.810000  110832.411271  46931.953372
   12370.5150  958020.690000  111497.634432  47329.433506
   12374.8510  963390.060000  112336.336586  47790.423609
   12379.1890  965695.940000  112775.602160  48085.954237
   12383.5320  970989.370000  113522.439333  48485.031467
   12387.8760  974535.250000  114109.634306  48810.565262
   12392.5600  976546.690000  114498.481717  49067.674760
   12396.9110  983635.690000  115550.723119  49610.256407
   12401.2650  987440.120000  116189.543928  49975.393633
   12405.6210  992094.120000  116942.806485  50413.020341
   12410.3170  995852.620000  117554.643289  50776.196643
   12414.6820  999113.620000  118116.981959  51132.888764
   12419.0490  1003511.200000  118857.860441  51567.108090
   12423.7550  1007930.200000  119666.200013  52057.834382
   12428.1290  1011356.800000  120385.016164  52505.061510
   12432.8420  1015065.900000  121188.334073  52998.807615
   12437.5600  1019218.500000  122052.152896  53522.072352
   12441.9420  1023491.600000  122906.536163  54056.878508
   12446.6660  1028965.300000  123911.427151  54650.202128
   12451.3950  1032740.400000  124656.771258  55140.023438
   12456.1250  1035233.100000  125209.695747  55536.396451
   12460.5220  1039352.200000  125954.145164  56004.291036
   12465.2610  1040120.900000  126290.048713  56318.689084
   12470.0030  1049164.100000  127616.418066  57056.587063
   12474.7480  1051141.900000  128053.401487  57413.046936
   12479.4980  1056562.100000  128919.814016  57945.998374
   12484.2500  1058599.900000  129334.680218  58283.437667
   12489.0070  1062813.100000  130020.163171  58718.447196
   12494.1070  1066311.900000  130607.174604  59127.992051
   12498.8710  1070037.300000  131235.548227  59561.982121
   12503.6400  1075469.100000  132098.547693  60072.545136
   12508.4110  1077906.400000  132601.039918  60440.627542
   12513.5270  1081113.300000  133237.016681  60879.215198
   12518.3070  1086171.600000  134133.490128  61422.320740
   12523.4320  1089904.500000  134910.467768  61930.937736
   12528.2200  1094521.900000  135820.060605  62507.123478
   12533.3520  1097187.900000  136503.018909  62980.775620
   12538.1460  1100207.300000  137253.543180  63447.957033
   12543.2880  1104151.300000  138102.514014  64016.634557
   12548.0900  1109299.800000  139137.031334  64622.851359
   12553.2390  1112658.800000  139933.141164  65175.631263
   12558.3930  1116048.300000  140728.629376  65701.872219
   12563.5510  1121053.300000  141725.766531  66324.686201
   12568.7130  1124592.800000  142528.402204  66882.021464
   12573.5360  1129892.900000  143467.442576  67491.828308
   12578.7070  1134026.400000  144301.053201  68064.178697
   12583.8810  1136618.500000  144880.013296  68539.985531
   12589.0610  1140468.100000  145644.696651  69068.410582
   12594.2440  1144232.100000  146319.712027  69590.261458
   12599.4320  1147864.900000  147047.385772  70130.717046
   12604.9720  1149814.000000  147573.516586  70604.654433
   12610.1680  1154237.600000  148407.121544  71203.104388
   12615.3690  1156408.800000  148957.289907  71664.099647
   12620.5740  1162493.500000  150078.958567  72390.613706
   12625.7840  1165806.800000  150852.065587  72974.601686
   12631.3480  1168955.500000  151649.796772  73560.176124
   12636.5660  1174541.800000  152760.967084  74288.234884
   12642.1370  1175908.500000  153345.618661  74766.791262
   12647.3640  1179761.800000  154254.808030  75409.897477
   12652.9450  1183704.500000  155222.443363  76075.480096
   12658.1840  1184983.900000  155800.675167  76555.637723
   12663.7740  1189334.600000  156758.322163  77207.250426
   12669.0200  1192288.000000  157496.530457  77751.421137
   12674.6200  1194758.900000  158171.310082  78290.141374
   12680.2280  1198170.300000  158954.487986  78881.334019
   12685.8370  1200725.100000  159655.266003  79432.078920
   12691.1020  1204534.500000  160410.549663  80019.348704
   12696.7220  1207462.500000  161116.278199  80595.098027
   12702.3490  1212096.900000  162041.603490  81275.426511
   12707.9790  1214405.900000  162635.299069  81796.198138
   12713.6130  1216812.400000  163259.658711  82343.566652
   12719.2550  1219351.300000  163926.355477  82910.372505
   12724.9010  1223593.800000  164831.632733  83599.734584
   12730.5510  1225745.900000  165457.412536  84147.603021
   12736.2080  1227792.400000  166075.754894  84701.036513
   12741.8680  1231865.400000  167050.620772  85431.986930
   12747.8890  1236420.000000  168116.868960  86236.393429
   12753.5620  1237403.100000  168674.730429  86768.364274
   12759.2370  1239648.600000  169388.049103  87383.845488
   12764.9190  1244621.800000  170515.975051  88206.882041
   12770.9620  1246747.400000  171256.316135  88854.398575
   12776.6540  1248658.600000  171967.092200  89466.390901
   12782.3510  1252044.300000  172861.541243  90194.994702
   12788.4100  1254307.400000  173613.371967  90854.063982
   12794.1190  1256166.100000  174299.761380  91448.656488
   12800.1890  1259901.400000  175185.733066  92201.817497
   12806.2660  1262200.000000  175946.066749  92850.419808
   12811.9890  1267848.300000  177072.010818  93696.598880
   12818.0770  1268788.000000  177589.444218  94244.285490
   12824.1700  1271362.400000  178338.309284  94889.452902
   12829.9100  1275403.100000  179244.817063  95606.208889
   12836.0160  1277126.500000  179892.762853  96232.449282
   12842.1270  1278730.300000  180523.129615  96839.155502
   12848.2440  1282231.600000  181418.093504  97585.437505
   12854.3660  1284412.500000  182174.623041  98266.266004
   12860.4950  1287912.900000  183110.588700  99050.575186
   12866.2690  1290685.800000  183940.987121  99754.371962
   12872.4080  1292845.100000  184655.988551  100418.722874
   12878.5550  1295075.000000  185467.541354  101133.627558
   12885.0690  1293924.500000  185775.531894  101596.016545

