# XDI/1.0
# Column.1: energy eV
# Column.2: i0
# Column.3: itrans
# Column.4: irefer
# Beamline.name: SSRL 2-3
# Beamline.notes: vert slits = 0.6mm
# Detector.I0: N2 15cm
# Detector.I1: Ar 30cm
# Detector.I2: Ar 15cm
# Element.edge: K
# Element.symbol: As
# Mono.d_spacing: 3.13550
# Mono.name: Si(111)
# Mono.notes: unfocused, detuned 75%, clockwise at E=12000eV
# Sample.formula: As2O5
# Sample.name: As2O5 arsenic (V) oxide
# Sample.prep: powder on tape (5 layers)
# Sample.reference: GaAs powder
# Sample.temperature: 10K
# Scan.start_time: 1997-04-19 18:40:39
# ///
#    Note: mono d_spacing is nominal!
#     exafs to K16, GaAs in IR
#     413  E XMU XMUR I0
#-------------
#   energy   i0   itrans  irefer
   11634.8900  540374.310000  96003.540030  39417.014615
   11644.9080  538156.310000  95937.511437  39609.003637
   11654.9440  535092.310000  95760.499181  39782.999551
   11664.9980  532761.310000  95688.535996  39994.014292
   11675.0700  530232.310000  95584.457775  40184.981499
   11684.8620  527545.310000  95446.488194  40352.996610
   11694.9690  524671.310000  95269.525996  40509.012910
   11705.0930  521581.310000  95066.455433  40658.982281
   11714.9370  518899.310000  94903.525697  40815.012070
   11725.0950  516262.310000  94760.531580  40998.012463
   11734.9740  513383.310000  94562.478023  41139.990740
   11744.8670  510964.310000  94460.498736  41342.000494
   11755.0790  508808.310000  94391.529990  41545.015260
   11765.0090  505954.310000  94196.532297  41681.015809
   11774.9540  502989.310000  93954.527703  41824.011709
   11784.9180  500033.310000  93708.482760  41939.991223
   11794.8960  498264.310000  93656.485516  42167.993238
   11804.8950  496320.310000  93561.456073  42331.978976
   11814.9090  493540.310000  93274.479368  42448.990748
   11824.9400  491061.310000  92969.454003  42512.977728
   11834.9890  488232.310000  92512.459955  42502.981978
   11845.0570  485675.310000  91834.524813  42303.013058
   11845.3610  486043.310000  91923.502367  42344.999356
   11845.9730  486482.310000  91958.513874  42377.007499
   11846.5830  485701.310000  91764.530639  42282.016190
   11846.8890  485328.310000  91711.482522  42262.991166
   11847.4990  486343.310000  91860.468009  42325.983885
   11848.1100  486425.310000  91828.468567  42311.984382
   11848.4150  485587.310000  91669.535675  42240.015518
   11849.0270  485485.310000  91607.489351  42211.995314
   11849.6370  485546.310000  91546.466079  42179.982889
   11849.9420  485452.310000  91526.454826  42162.978711
   11850.5560  484299.310000  91251.472076  42042.988253
   11850.8600  484065.310000  91161.516118  41995.007225
   11851.4710  483974.310000  91106.470382  41960.987887
   11852.0830  484401.310000  91104.455973  41951.979379
   11852.3900  483599.310000  90930.519412  41858.010648
   11853.0000  484356.310000  90996.479009  41891.988926
   11853.6100  484415.310000  90928.512175  41832.005037
   11853.9170  484757.310000  90941.493752  41837.998179
   11854.5290  484595.310000  90801.529506  41757.013710
   11855.1400  484366.310000  90653.492096  41662.996439
   11855.4460  484037.310000  90547.537634  41603.017077
   11856.0580  484643.310000  90525.463617  41562.984566
   11856.3630  483143.310000  90186.461153  41396.983577
   11856.9760  483179.310000  90045.475585  41291.989693
   11857.5880  483236.310000  89907.538178  41168.017831
   11857.8940  483281.310000  89831.519149  41128.010353
   11858.5040  483006.310000  89590.538540  40951.015878
   11859.1180  482985.310000  89370.463270  40779.982626
   11859.4240  482731.310000  89212.503619  40669.002985
   11860.0350  482972.310000  88987.536697  40458.017148
   11860.6470  482362.310000  88597.488630  40149.994852
   11860.9550  481565.310000  88335.481922  39967.993075
   11861.5660  481681.310000  87991.455467  39633.979274
   11861.8720  482183.310000  87905.498164  39491.997362
   11862.4840  482378.310000  87492.465555  39021.984082
   11863.0980  480480.310000  86651.493275  38282.996784
   11863.4030  480918.310000  86531.492429  38032.996884
   11864.0170  481113.310000  85911.510091  37126.003018
   11864.6280  480030.310000  84999.489258  35838.995047
   11864.9350  479303.310000  84469.507567  35075.003018
   11865.5470  479178.310000  83452.514614  33171.006057
   11865.8540  479837.310000  83150.490862  32419.996519
   11866.4670  479808.310000  81822.532979  29972.001722
   11867.0780  479070.310000  80086.505691  27297.015438
   11867.3880  479435.310000  79293.485393  26157.997457
   11867.9990  480126.310000  77168.490157  23744.008266
   11868.6110  479847.310000  74168.530958  21510.000126
   11868.9190  479401.310000  72831.463632  20748.979289
   11869.5320  479157.310000  68448.521847  18794.005392
   11870.1450  479403.310000  63086.526869  17003.007266
   11870.4510  479434.310000  60336.479525  16188.998200
   11871.0640  478538.310000  52900.525380  14161.007975
   11871.3710  478285.310000  50073.475526  13409.996513
   11871.9850  478716.310000  41296.517206  11122.000428
   11872.5990  478139.310000  32834.511219  8919.002683
   11872.9050  477617.310000  29224.511882  7971.006773
   11873.5180  477399.310000  21695.508739  5981.002934
   11874.1330  477719.310000  16184.505638  4514.002997
   11874.4390  478058.310000  14640.500755  4099.998929
   11875.0530  478123.310000  11886.504369  3379.002913
   11875.3580  477294.310000  11345.501284  3250.998899
   11875.9750  477961.310000  11451.500710  3354.000417
   11876.5880  478249.310000  12801.497619  3826.001127
   11876.8940  478335.310000  13506.498931  4065.000931
   11877.5090  476865.310000  15810.496929  4838.999972
   11878.1230  477053.310000  18384.506018  5692.999406
   11878.4300  477296.310000  19645.503704  6112.999034
   11879.0440  477368.310000  22339.498197  7014.997319
   11879.3510  476209.310000  23228.488652  7310.995768
   11879.9660  476630.310000  25738.506011  8157.005748
   11880.5800  476216.310000  27831.491957  8865.995101
   11880.8870  476729.310000  28673.485499  9150.997095
   11881.5000  475026.310000  30090.490511  9642.999310
   11882.1160  475736.310000  31274.489402  10048.996011
   11882.4240  475861.310000  31607.500380  10160.995770
   11883.0370  475910.310000  32274.498947  10385.996538
   11883.6520  474950.310000  32573.503703  10480.005336
   11883.9590  475040.310000  32680.503067  10513.999592
   11884.5740  474939.310000  32827.514730  10554.000976
   11884.8810  474577.310000  32840.500800  10554.998447
   11885.4960  473967.310000  32890.516143  10571.010045
   11886.1100  473327.310000  32923.514749  10594.003532
   11886.4190  473571.310000  32969.487192  10617.998185
   11887.0340  473857.310000  33093.511720  10662.002391
   11887.6480  473316.310000  33181.513432  10700.001659
   11887.9550  473837.310000  33260.484308  10730.992338
   11888.5720  473835.310000  33438.496098  10791.996710
   11888.8790  474064.310000  33545.508767  10826.003672
   11889.4930  473725.310000  33763.510183  10895.007306
   11890.1090  473437.310000  34052.501889  10983.998224
   11890.4170  474081.310000  34226.487995  11038.993267
   11891.0320  473930.310000  34619.506178  11155.005105
   11891.6480  473316.310000  34986.486834  11268.000524
   11891.9560  472794.310000  35149.501333  11317.004655
   11892.5700  473459.310000  35638.516402  11480.006699
   11892.8790  472802.310000  35752.505545  11518.003718
   11893.4950  473061.310000  36198.511512  11676.998884
   11894.1090  472677.310000  36556.497325  11825.000017
   11894.4190  472378.310000  36710.512889  11879.998276
   11895.0350  472331.310000  37069.505124  12040.002738
   11895.6490  472555.060000  37404.247566  12194.759000
   11896.2660  472342.340000  37673.503382  12323.031847
   11896.8810  472034.120000  37901.294649  12438.845420
   11897.4980  472441.440000  38138.558433  12542.147879
   11898.4220  472196.250000  38432.355005  12646.995576
   11899.0380  472582.590000  38684.636259  12723.345385
   11899.6550  471990.440000  38926.440774  12791.229377
   11900.5800  472044.810000  39506.764781  12956.620817
   11901.1950  472909.720000  40032.575231  13114.539542
   11902.1210  472634.090000  40729.901164  13325.979756
   11903.0450  472759.030000  41523.719092  13591.924211
   11903.6620  473727.470000  42102.040125  13794.392907
   11904.5870  474026.410000  42814.894203  14037.383733
   11905.5130  474138.870000  43505.277539  14284.903116
   11906.4380  474062.870000  44105.123288  14500.932389
   11907.3630  475175.370000  44827.506523  14760.488811
   11908.2910  475697.370000  45399.353948  14964.547068
   11909.2150  475951.910000  45935.756372  15145.141989
   11910.1430  475901.970000  46335.661326  15282.263195
   11911.0680  476720.530000  46706.036997  15398.874590
   11912.3030  477670.590000  46943.950742  15465.030103
   11913.2290  478497.220000  46958.367019  15448.692950
   11914.1560  478910.310000  46798.321440  15377.898798
   11915.3920  479837.940000  46442.752351  15257.595153
   11916.3180  480747.090000  46133.682882  15165.821818
   11917.5560  481153.750000  45515.133070  15008.562410
   11918.7930  481521.940000  44825.079638  14845.826710
   11919.7190  482511.620000  44335.557319  14741.623208
   11920.9570  483872.840000  43677.502165  14587.910605
   11922.1930  485212.560000  43116.987585  14439.739064
   11923.4320  485912.810000  42604.982414  14288.088306
   11924.6690  486547.560000  42192.465243  14179.945198
   11925.9080  488092.840000  41944.471386  14111.324537
   11927.1460  489216.620000  41701.970299  14030.217228
   11928.3840  490655.940000  41494.012884  13962.653373
   11929.6230  491959.750000  41239.515229  13867.582252
   11930.8610  492881.090000  40946.565991  13752.050609
   11932.4110  495167.970000  40623.106825  13603.022876
   11933.6510  495977.310000  40291.163612  13460.523005
   11934.8910  497523.220000  40056.711154  13335.534361
   11936.4410  498996.620000  39795.757940  13205.063073
   11937.9920  499812.530000  39615.326972  13116.121050
   11939.2320  501109.970000  39571.437311  13096.716868
   11940.7840  501938.940000  39486.999013  13080.799641
   11942.3360  502737.410000  39453.114258  13095.412605
   11943.5770  504339.370000  39544.688809  13154.545899
   11945.1300  507501.870000  39774.794022  13260.191090
   11946.6840  510067.910000  39964.432606  13339.370810
   11948.2370  512107.440000  40133.542130  13420.057911
   11949.7910  513984.470000  40317.194923  13507.269892
   11951.3460  515484.030000  40516.338939  13597.001947
   11952.8990  517743.120000  40806.982722  13712.258475
   11954.7670  518259.720000  41024.133134  13820.023331
   11956.3220  519748.840000  41313.804557  13957.314320
   11957.8780  522621.470000  41722.995819  14132.123031
   11959.7450  525002.620000  42124.657289  14281.446582
   11961.3010  527017.250000  42445.855711  14393.306620
   11963.1710  529045.440000  42788.540700  14492.660170
   11964.7290  530439.120000  43025.724965  14574.540306
   11966.5980  532882.370000  43339.467334  14686.955305
   11968.4700  534468.060000  43602.695503  14821.887477
   11970.0270  536951.310000  43955.397210  15000.318287
   11971.9000  539667.060000  44413.629536  15251.279388
   11973.7710  541735.370000  44902.372589  15514.772506
   11975.6440  543003.120000  45386.607193  15757.761945
   11977.5190  545246.440000  45967.373631  16003.298799
   11979.3920  547358.250000  46561.663183  16238.346679
   11981.2670  550097.620000  47157.438231  16459.910427
   11983.1410  551103.500000  47549.707227  16601.974462
   11985.0170  553612.870000  48010.495913  16756.573882
   11987.2060  554419.750000  48302.777846  16832.694078
   11989.0830  558354.120000  48761.613014  16948.348319
   11991.2730  562177.060000  49242.883202  17057.480622
   11993.1510  565113.500000  49607.726407  17122.178234
   11995.3440  566739.440000  49880.076608  17145.378407
   11997.2250  568570.940000  50139.899580  17192.084767
   11999.4170  571080.870000  50444.253142  17271.328739
   12001.2990  573331.370000  50682.103328  17356.079643
   12003.4940  576181.440000  50963.445004  17481.350222
   12005.6880  579856.940000  51291.313889  17636.143742
   12007.8860  580839.000000  51370.681455  17712.464664
   12010.0830  583518.560000  51587.544582  17829.283737
   12012.2820  585341.620000  51700.975127  17913.643740
   12014.4810  588438.250000  51886.829620  18043.508738
   12016.6820  592790.370000  52192.240213  18195.891538
   12018.8810  595762.000000  52391.180100  18320.822572
   12021.0830  598470.120000  52578.568773  18429.241202
   12023.6020  602202.810000  52825.513396  18598.190337
   12025.8040  604306.000000  52891.978498  18672.665045
   12028.0080  607159.690000  52978.906151  18748.651638
   12030.5270  610675.870000  53063.341755  18833.163418
   12032.7330  613239.620000  53075.305139  18868.177197
   12035.2570  616638.870000  53177.775362  18958.730782
   12037.7800  620592.620000  53351.754309  19066.804910
   12039.9890  622526.870000  53417.253448  19134.381436
   12042.5140  626322.690000  53746.240347  19286.487430
   12045.0400  629439.000000  54111.728021  19456.105855
   12047.5660  631534.810000  54447.724779  19625.251188
   12050.0960  636068.120000  55032.265822  19875.934226
   12052.6250  637883.000000  55349.237381  20001.092178
   12055.1540  639752.370000  55632.812475  20090.803632
   12057.6880  641983.250000  55908.823552  20163.019585
   12060.2210  647702.690000  56504.358645  20372.761322
   12062.7540  651434.620000  56937.435289  20543.016192
   12065.2880  655880.060000  57401.987999  20743.810995
   12068.1420  658750.000000  57745.077049  20912.103368
   12070.6780  661557.440000  58093.618001  21068.916712
   12073.2180  665800.440000  58586.716266  21234.261507
   12076.0730  669103.940000  59037.298036  21366.118384
   12078.6150  673145.940000  59520.402686  21518.481189
   12081.4730  675055.500000  59808.985551  21604.376496
   12084.3350  678974.560000  60264.105430  21757.785772
   12086.8780  682361.120000  60656.755803  21897.730891
   12089.7420  686954.190000  61195.864198  22111.185435
   12092.6060  690406.810000  61633.527715  22317.162551
   12095.4740  694111.870000  62111.685496  22575.678258
   12098.3400  696628.560000  62488.301063  22793.658384
   12101.2090  700565.690000  62998.450903  23064.188593
   12104.0800  705407.310000  63589.119627  23360.238804
   12106.9520  709036.500000  64065.308359  23597.819322
   12109.8250  711485.190000  64443.998228  23814.911120
   12112.6970  714993.440000  64894.207552  24062.527811
   12115.8940  719085.120000  65425.869435  24372.643551
   12118.7710  723822.370000  65958.121439  24647.308773
   12121.6500  727281.190000  66404.789443  24904.457015
   12124.8500  731010.440000  66920.057908  25187.162534
   12127.7310  734356.250000  67386.740164  25427.349967
   12130.9360  739108.560000  67991.983694  25715.077972
   12133.8190  742839.370000  68505.760062  25944.333674
   12137.0270  745175.690000  68836.974186  26097.087448
   12140.2350  751801.560000  69565.754009  26364.376031
   12143.4450  755088.940000  69986.022507  26523.182016
   12146.3370  758470.810000  70383.813454  26674.506971
   12149.5510  762449.250000  70802.120364  26830.361790
   12152.7650  765476.120000  71084.905829  26954.717255
   12155.9810  770126.560000  71473.222208  27124.605419
   12159.2000  774038.560000  71817.034087  27266.007817
   12162.4210  778344.000000  72211.303068  27443.912756
   12165.6420  782169.000000  72592.152937  27628.358572
   12169.1890  786272.500000  73002.480824  27829.316752
   12172.4150  789282.500000  73350.278755  28022.781516
   12175.6430  793772.060000  73912.675971  28305.797489
   12178.8720  798356.060000  74544.531749  28591.317517
   12182.4260  801425.690000  75060.860221  28833.337048
   12185.6580  806855.750000  75727.767567  29129.907742
   12189.2180  809243.310000  76048.144947  29302.986110
   12192.4520  814608.440000  76617.043812  29593.586219
   12196.0160  819200.060000  77097.382265  29856.677824
   12199.5790  820739.250000  77339.317272  30034.326930
   12202.8220  825966.870000  77962.712207  30332.473271
   12206.3900  828742.060000  78447.605867  30599.138677
   12209.9610  833797.750000  79218.025447  30976.323882
   12213.5340  837627.000000  79838.024942  31316.064040
   12217.1070  840507.690000  80283.418250  31612.278401
   12220.6860  846070.940000  80877.382346  31938.031494
   12224.2630  850714.690000  81341.863316  32233.313806
   12227.8450  855790.000000  81879.775497  32542.083185
   12231.4270  858789.810000  82342.238377  32813.391206
   12235.0130  864030.060000  83054.212719  33182.215672
   12238.9270  868447.940000  83700.725177  33526.576124
   12242.5160  871377.250000  84140.751186  33771.451180
   12246.1080  876396.120000  84839.240754  34102.830289
   12250.0290  880429.500000  85446.278479  34376.749753
   12253.6250  884467.370000  85954.717941  34604.143251
   12257.5500  888841.750000  86495.744022  34833.090474
   12261.1520  892475.690000  86986.355688  35059.586143
   12265.0810  897552.120000  87689.326834  35384.539629
   12269.0160  899429.060000  88096.885835  35609.045200
   12272.6230  905275.560000  88836.924814  35969.062124
   12276.5610  910590.560000  89537.484252  36308.601026
   12280.5020  914664.060000  90184.615289  36631.687712
   12284.4450  917754.060000  90752.175584  36917.261989
   12288.3910  923218.620000  91585.234615  37353.344952
   12292.3380  927179.620000  92201.860713  37698.978991
   12296.2890  931047.250000  92810.987064  38045.127764
   12300.2430  935349.310000  93443.600688  38406.789471
   12304.1980  940565.870000  94167.648038  38817.935055
   12308.1580  942336.000000  94500.289584  39052.640751
   12312.1190  946284.620000  95008.407778  39348.847681
   12316.0840  952139.810000  95686.084776  39729.599262
   12320.3800  957931.440000  96390.264866  40133.869737
   12324.3490  959836.620000  96760.909232  40392.639690
   12328.6520  965381.310000  97521.041326  40830.921048
   12332.6270  970452.560000  98194.727198  41219.738004
   12336.6040  973381.250000  98669.890078  41526.062195
   12340.9150  978689.500000  99446.561731  41968.911082
   12345.2290  983446.250000  100120.752707  42372.276175
   12349.2150  987806.560000  100725.489326  42716.180766
   12353.5360  992205.370000  101366.748374  43091.614201
   12357.8590  994908.690000  101878.401922  43375.517286
   12362.1870  998326.500000  102455.686382  43730.988820
   12366.1830  1004478.800000  103270.429741  44173.964585
   12370.5150  1008142.700000  103836.651538  44525.444224
   12374.8510  1013167.100000  104604.382266  44965.442316
   12379.1890  1017941.900000  105371.597124  45383.950203
   12383.5320  1021165.400000  105894.445741  45674.031738
   12387.8760  1025946.300000  106526.702900  46031.593925
   12392.5600  1026955.700000  106844.453762  46261.661543
   12396.9110  1033922.700000  107722.803569  46725.291598
   12401.2650  1037905.100000  108351.506698  47098.376618
   12405.6210  1043170.100000  109096.905544  47504.062274
   12410.3170  1045903.600000  109637.720425  47855.228466
   12414.6820  1050954.600000  110429.043341  48289.911779
   12419.0490  1055702.100000  111247.819649  48761.088217
   12423.7550  1059972.300000  112060.180703  49228.821493
   12428.1290  1063362.800000  112734.964656  49656.039189
   12432.8420  1066126.900000  113293.369058  50037.826069
   12437.5600  1070378.500000  113951.236083  50459.109894
   12441.9420  1074831.600000  114603.606845  50898.908388
   12446.6660  1077523.300000  115090.462075  51246.219317
   12451.3950  1081038.400000  115640.858344  51658.060307
   12456.1250  1087977.000000  116569.689523  52217.390330
   12460.5220  1089845.300000  117011.127668  52546.287012
   12465.2610  1093135.900000  117605.972076  52956.658621
   12470.0030  1098927.100000  118547.369009  53529.565058
   12474.7480  1103270.900000  119349.312452  54035.011198
   12479.4980  1107773.100000  120140.760912  54525.973327
   12484.2500  1110180.900000  120697.721917  54918.460784
   12489.0070  1114510.100000  121497.199745  55405.463895
   12494.1070  1118301.900000  122262.167498  55871.988425
   12498.8710  1121191.300000  122910.575157  56289.997762
   12503.6400  1126333.100000  123718.594928  56784.573236
   12508.4110  1130873.400000  124516.038825  57295.628738
   12513.5270  1131889.300000  124938.980543  57627.199078
   12518.3070  1137533.600000  125818.537314  58163.341715
   12523.4320  1142562.500000  126624.476191  58680.943147
   12528.2200  1144669.900000  127077.937264  59029.072541
   12533.3520  1146843.900000  127582.984756  59401.757514
   12538.1460  1154372.300000  128697.541522  60064.958126
   12543.2880  1158753.300000  129491.593603  60608.676826
   12548.0900  1162669.800000  130180.141007  61053.906761
   12553.2390  1168814.800000  131184.210559  61675.663657
   12558.3930  1170505.300000  131686.726119  62063.913371
   12563.5510  1175353.300000  132568.708035  62645.657308
   12568.7130  1180061.800000  133431.346745  63216.995995
   12573.5360  1186011.900000  134391.423557  63818.825237
   12578.7070  1188861.400000  135008.038533  64277.176915
   12583.8810  1191352.500000  135617.102928  64760.023736
   12589.0610  1195160.100000  136361.634014  65287.378338
   12594.2440  1202325.100000  137451.832194  65971.322790
   12599.4320  1205632.900000  138079.407489  66449.724306
   12604.9720  1210348.000000  138901.521073  67055.658643
   12610.1680  1214894.600000  139694.179769  67644.138275
   12615.3690  1217870.800000  140339.342829  68158.124575
   12620.5740  1223697.500000  141334.905738  68829.586718
   12625.7840  1228018.800000  142213.068875  69437.607672
   12631.3480  1230124.500000  142868.790879  69959.175359
   12636.5660  1233445.800000  143667.843813  70535.173126
   12642.1370  1233422.500000  144113.632742  70941.798728
   12647.3640  1237667.800000  144938.727074  71515.855561
   12652.9450  1236888.500000  145162.416724  71819.464376
   12658.1840  1240934.900000  145919.678948  72377.633792
   12663.7740  1243319.600000  146512.416383  72842.296206
   12669.0200  1247150.000000  147255.655187  73403.485960
   12674.6200  1248704.900000  147783.329792  73844.151623
   12680.2280  1253159.300000  148680.555509  74497.366941
   12685.8370  1254761.100000  149207.279214  74966.082272
   12691.1020  1261584.500000  150382.605452  75738.373661
   12696.7220  1262526.500000  150871.299325  76201.111639
   12702.3490  1263938.900000  151412.550661  76677.401877
   12707.9790  1267902.900000  152262.279182  77310.188748
   12713.6130  1272560.400000  153200.606001  78006.535600
   12719.2550  1278023.300000  154305.417107  78781.402993
   12724.9010  1281210.800000  155053.597473  79365.720818
   12730.5510  1287201.900000  156222.468540  80204.632235
   12736.2080  1289558.400000  156919.841797  80784.079738
   12741.8680  1293101.400000  157746.576318  81440.956532
   12747.8890  1294765.000000  158384.954474  81992.435293
   12753.5620  1297755.100000  159154.782665  82619.390482
   12759.2370  1301959.600000  160065.129711  83327.888837
   12764.9190  1304135.800000  160684.992193  83874.889526
   12770.9620  1309934.400000  161778.212505  84681.345774
   12776.6540  1314210.600000  162639.234106  85369.462952
   12782.3510  1315094.300000  163130.525951  85887.985499
   12788.4100  1317525.400000  163881.328497  86508.040136
   12794.1190  1323456.100000  165010.787655  87352.665518
   12800.1890  1323198.400000  165370.616404  87768.758807
   12806.2660  1327260.000000  166265.007446  88494.388729
   12811.9890  1329782.300000  167014.982441  89154.589498
   12818.0770  1329360.000000  167406.485928  89594.309005
   12824.1700  1329365.400000  167843.326595  90102.459752
   12829.9100  1336192.100000  169080.702611  91002.149870
   12836.0160  1338371.500000  169783.628926  91601.372516
   12842.1270  1339459.300000  170301.143804  92153.162636
   12848.2440  1345933.600000  171511.132603  93057.462402
   12854.3660  1346924.500000  172049.482494  93602.194091
   12860.4950  1350388.900000  172912.537664  94325.550687
   12866.2690  1352707.800000  173631.049070  94985.404250
   12872.4080  1355617.100000  174492.027687  95720.745753
   12878.5550  1359564.000000  175467.587475  96543.659791
   12885.0690  1359614.500000  175973.511816  97107.001878

