# XDI/1.0
# Column.1: energy eV
# Column.2: i0
# Column.3: itrans
# Column.4: irefer
# Beamline.name: SSRL 2-3
# Beamline.notes: vert slits = 0.6mm
# Detector.I0: N2 15cm
# Detector.I1: Ar 30cm
# Detector.I2: Ar 15cm
# Element.edge: K
# Element.symbol: As
# Mono.d_spacing: 3.13550
# Mono.name: Si(111)
# Mono.notes: unfocused, detuned 75%, clockwise at E=12000eV
# Sample.formula: As2O5
# Sample.name: As2O5 arsenic (V) oxide
# Sample.prep: powder on tape (5 layers)
# Sample.reference: GaAs powder
# Sample.temperature: 100K
# Scan.start_time: 1997-04-19 21:41:34
# ///
#    Note: mono d_spacing is nominal!
#     exafs to K16, GaAs in IR
#     413  E XMU XMUR I0
#-------------
#   energy   i0   itrans  irefer
   11634.8900  523836.310000  93061.470695  37897.989001
   11644.9080  521327.310000  92993.544676  38097.016755
   11654.9440  518803.310000  92865.464966  38281.985480
   11664.9980  516406.310000  92785.453656  38476.981451
   11675.0700  514093.310000  92710.504745  38679.002663
   11684.8620  511342.310000  92552.518273  38829.006150
   11694.9690  508065.310000  92281.529000  38947.013818
   11705.0930  505695.310000  92196.515202  39145.005222
   11714.9370  503134.310000  92074.511085  39305.004524
   11725.0950  500929.310000  91987.527143  39488.010466
   11734.9740  498999.310000  91977.475264  39717.989179
   11744.8670  496185.310000  91785.512184  39870.004164
   11755.0790  493115.310000  91513.457797  39968.983516
   11765.0090  491012.310000  91443.491180  40171.994506
   11774.9540  488571.310000  91293.486042  40344.994635
   11784.9180  486429.310000  91187.478261  40512.990991
   11794.8960  483558.310000  90935.540322  40635.018010
   11804.8950  480797.310000  90688.520940  40746.008679
   11814.9090  478146.310000  90410.532767  40834.016571
   11824.9400  475850.310000  90140.478890  40908.989455
   11834.9890  473419.310000  89736.489954  40902.994940
   11845.0570  471200.310000  89104.540273  40728.019290
   11845.3610  470304.310000  88909.495983  40646.996778
   11845.9730  470783.310000  88955.471514  40664.985883
   11846.5830  470798.310000  88938.470304  40657.986467
   11846.8890  470346.310000  88839.489539  40620.995081
   11847.4990  470319.310000  88792.469814  40596.986796
   11848.1100  469562.310000  88621.456900  40513.980233
   11848.4150  469866.310000  88624.487978  40518.996253
   11849.0270  469687.310000  88561.495527  40491.998044
   11849.6370  468827.310000  88359.479838  40381.989927
   11849.9420  468583.310000  88286.473573  40348.987792
   11850.5560  468792.310000  88260.514619  40341.008594
   11850.8600  468737.310000  88231.540834  40324.019344
   11851.4710  468565.310000  88128.457492  40260.981313
   11852.0830  468647.310000  88054.459523  40223.981854
   11852.3900  468739.310000  88042.510499  40211.003283
   11853.0000  469153.310000  88033.515685  40190.007779
   11853.6100  469031.310000  87928.459646  40135.981461
   11853.9170  468608.310000  87785.493034  40059.997170
   11854.5290  469002.310000  87744.457136  40018.982090
   11855.1400  469172.310000  87676.517112  39962.007877
   11855.4460  468404.310000  87481.542934  39861.021164
   11856.0580  468451.310000  87349.487455  39762.993526
   11856.3630  468534.310000  87291.520952  39716.008084
   11856.9760  468622.310000  87162.494970  39619.995783
   11857.5880  468612.310000  86946.483349  39456.993060
   11857.8940  467890.310000  86724.539947  39328.017883
   11858.5040  467762.310000  86497.480149  39156.991242
   11859.1180  467800.310000  86268.499238  38965.000371
   11859.4240  467294.310000  86064.522218  38811.010157
   11860.0350  467330.310000  85762.539584  38554.017488
   11860.6470  467323.310000  85436.493234  38260.997327
   11860.9550  467680.310000  85349.531854  38133.015834
   11861.5660  467288.310000  84881.522679  37699.009969
   11861.8720  466540.310000  84531.515218  37411.005506
   11862.4840  466265.310000  83963.468621  36787.985352
   11863.0980  466722.310000  83455.491644  36037.997053
   11863.4030  466019.310000  83073.525996  35595.010411
   11864.0170  465609.310000  82238.527112  34344.012398
   11864.6280  465506.310000  81316.475926  32698.988737
   11864.9350  465728.310000  80862.520780  31792.008029
   11865.5470  465634.310000  79617.473378  29545.991510
   11865.8540  465230.310000  79007.483300  28571.981600
   11866.4670  465627.310000  77424.521851  26053.016296
   11867.0780  465645.310000  75356.501622  23588.002331
   11867.3880  465633.310000  74198.463021  22503.985705
   11867.9990  465531.310000  71144.523861  20359.005719
   11868.6110  466072.310000  67330.531317  18507.013970
   11868.9190  465752.310000  65505.490871  17809.997719
   11869.5320  465107.310000  60070.516862  16053.006504
   11870.1450  464717.310000  53357.485930  14179.996655
   11870.4510  464609.310000  49910.522830  13264.003455
   11871.0640  464430.310000  42175.501307  11253.998804
   11871.3710  464613.310000  39036.514144  10438.004958
   11871.9850  463738.310000  30876.500904  8327.001322
   11872.5990  463529.310000  23497.490289  6408.995941
   11872.9050  463465.310000  20434.497747  5603.999496
   11873.5180  463930.310000  15174.499386  4219.000902
   11874.1330  463698.310000  11989.498562  3391.000962
   11874.4390  463425.310000  11225.502834  3198.999896
   11875.0530  463747.310000  10639.503437  3096.999729
   11875.3580  463938.310000  10883.496843  3200.997855
   11875.9750  463687.310000  12216.499110  3663.999917
   11876.5880  463636.310000  14246.502389  4340.998671
   11876.8940  463732.310000  15196.505007  4655.002592
   11877.5090  463085.310000  17671.502114  5475.000089
   11878.1230  462985.310000  20262.508888  6330.000567
   11878.4300  463153.310000  21480.490883  6729.999857
   11879.0440  463288.310000  23848.505671  7517.003292
   11879.3510  463028.310000  24698.492192  7802.999390
   11879.9660  462568.310000  26663.490785  8467.999069
   11880.5800  462221.310000  28287.494099  9018.994040
   11880.8870  462727.310000  28950.512804  9240.000292
   11881.5000  462348.310000  29964.505308  9588.001996
   11882.1160  461967.310000  30609.491206  9805.996938
   11882.4240  461941.310000  30814.515098  9876.002735
   11883.0370  462075.310000  31147.496925  9971.000066
   11883.6520  461719.310000  31298.499351  10022.004768
   11883.9590  461262.310000  31323.508419  10024.999099
   11884.5740  461120.310000  31391.494646  10047.993724
   11884.8810  460568.310000  31382.492805  10049.995467
   11885.4960  460716.310000  31447.499536  10072.001785
   11886.1100  460158.310000  31486.490551  10099.001751
   11886.4190  460240.310000  31538.491938  10122.996999
   11887.0340  460729.310000  31673.510179  10174.999585
   11887.6480  460687.310000  31811.489403  10224.998206
   11887.9550  460268.310000  31851.503993  10232.998055
   11888.5720  460285.310000  32060.493380  10303.993477
   11888.8790  461148.310000  32223.490491  10353.997789
   11889.4930  460739.310000  32487.499838  10432.004066
   11890.1090  460362.310000  32807.488915  10522.994445
   11890.4170  460641.310000  32975.493710  10578.003153
   11891.0320  460243.310000  33361.491457  10699.995110
   11891.6480  460501.310000  33766.483579  10821.000106
   11891.9560  459855.310000  33931.503734  10877.004660
   11892.5700  460472.310000  34371.499690  11028.002541
   11892.8790  460304.310000  34516.511862  11083.004560
   11893.4950  460197.310000  34886.513864  11219.006313
   11894.1090  459434.310000  35186.517084  11353.010736
   11894.4190  459386.310000  35355.483130  11420.996848
   11895.0350  459576.310000  35689.516844  11572.007090
   11895.6490  459368.060000  35957.251063  11696.758620
   11896.2660  459260.340000  36193.525122  11811.046514
   11896.8810  459181.120000  36410.301002  11905.848252
   11897.4980  459618.440000  36652.574338  11999.160236
   11898.4220  459603.250000  36980.347294  12101.998658
   11899.0380  459309.590000  37229.649400  12175.350666
   11899.6550  459229.440000  37572.445694  12272.229609
   11900.5800  459883.810000  38270.748997  12471.622589
   11901.1950  459484.720000  38686.576821  12604.535225
   11902.1210  459495.090000  39414.873939  12834.967167
   11903.0450  460169.030000  40233.737241  13100.925525
   11903.6620  460922.470000  40766.059124  13292.392126
   11904.5870  461108.410000  41415.912962  13509.392416
   11905.5130  460828.870000  42033.241071  13738.893597
   11906.4380  461570.870000  42681.117385  13967.938646
   11907.3630  462143.370000  43321.505200  14190.492067
   11908.2910  462579.370000  43836.383805  14374.562523
   11909.2150  463256.910000  44342.774761  14539.146662
   11910.1430  463082.970000  44644.639267  14639.249432
   11911.0680  464168.530000  44954.042831  14731.877709
   11912.3030  464968.590000  45067.972717  14754.038692
   11913.2290  465259.220000  44960.382478  14692.699131
   11914.1560  465924.310000  44757.283714  14622.876647
   11915.3920  466987.940000  44377.715173  14503.593306
   11916.3180  468292.090000  44077.666481  14414.811079
   11917.5560  468682.750000  43452.139905  14270.566086
   11918.7930  468929.940000  42760.055138  14109.825175
   11919.7190  469878.620000  42288.551785  14006.610630
   11920.9570  470892.840000  41660.504771  13856.917303
   11922.1930  471988.560000  41139.994396  13714.747970
   11923.4320  472881.810000  40714.996303  13594.081091
   11924.6690  473407.560000  40339.480989  13476.947949
   11925.9080  474624.840000  40091.473527  13415.324614
   11927.1460  476124.620000  39895.982384  13355.224100
   11928.3840  476626.940000  39615.010064  13260.651131
   11929.6230  478014.750000  39364.507670  13167.577917
   11930.8610  479106.090000  39078.562975  13053.039978
   11932.4110  480822.970000  38720.112064  12893.020992
   11933.6510  482732.310000  38496.151544  12783.525561
   11934.8910  483869.220000  38250.692458  12662.535379
   11936.4410  484581.620000  37980.766220  12538.073305
   11937.9920  485885.530000  37866.357811  12478.136853
   11939.2320  486827.970000  37811.406498  12458.695543
   11940.7840  487437.940000  37734.016414  12449.805244
   11942.3360  488404.410000  37714.090264  12472.407092
   11943.5770  489631.370000  37779.695486  12514.547928
   11945.1300  493098.870000  38024.804683  12622.194108
   11946.6840  495969.910000  38241.421460  12707.371518
   11948.2370  497661.440000  38375.567976  12779.061440
   11949.7910  498991.470000  38531.188391  12856.274774
   11951.3460  500334.030000  38722.349328  12944.007443
   11952.8990  502176.120000  38996.967817  13051.249742
   11954.7670  503480.720000  39290.133032  13185.021092
   11956.3220  506006.840000  39642.793827  13343.310685
   11957.8780  508309.470000  39993.960492  13489.120275
   11959.7450  510010.620000  40326.650335  13614.447554
   11961.3010  511782.280000  40610.851135  13704.295176
   11963.1710  513262.440000  40873.555670  13787.664193
   11964.7290  515683.160000  41175.752267  13886.561111
   11966.5980  517831.340000  41472.459929  13995.958240
   11968.4700  519679.090000  41761.693105  14140.888387
   11970.0270  521641.310000  42083.393370  14313.329072
   11971.9000  524068.090000  42530.634100  14560.285027
   11973.7710  526147.370000  43022.375663  14813.772829
   11975.6440  527585.120000  43522.638032  15047.776167
   11977.5190  529756.440000  44086.400392  15277.304388
   11979.3920  532554.250000  44698.671031  15515.348664
   11981.2670  534478.620000  45210.426258  15709.894388
   11983.1410  536290.500000  45658.691895  15870.975358
   11985.0170  537820.870000  46010.496228  15974.577452
   11987.2060  538887.750000  46305.803240  16044.695447
   11989.0830  542452.120000  46727.591913  16160.335653
   11991.2730  546316.060000  47191.919115  16253.506543
   11993.1510  548763.500000  47519.709673  16311.160479
   11995.3440  551369.440000  47891.070839  16375.381427
   11997.2250  553019.940000  48111.876472  16405.080259
   11999.4170  555931.870000  48429.239382  16494.314583
   12001.2990  558228.370000  48678.095470  16592.074538
   12003.4940  560865.440000  48930.455739  16706.352217
   12005.6880  563721.940000  49171.299793  16834.142500
   12007.8860  565119.000000  49278.669912  16908.447150
   12010.0830  567357.560000  49449.587796  17013.305634
   12012.2820  569725.620000  49605.954479  17111.639022
   12014.4810  573133.250000  49826.862073  17240.516733
   12016.6820  577914.370000  50167.264325  17409.912169
   12018.8810  580207.000000  50313.173248  17509.821226
   12021.0830  582430.120000  50455.573306  17614.232017
   12023.6020  586345.810000  50710.537791  17766.199276
   12025.8040  588991.000000  50810.951060  17858.666407
   12028.0080  591887.690000  50898.879219  17936.646384
   12030.5270  594158.870000  50871.342105  17967.161696
   12032.7330  597863.620000  50998.318814  18055.180786
   12035.2570  600427.870000  51026.776162  18106.726838
   12037.7800  603756.620000  51168.758984  18199.792078
   12039.9890  605934.870000  51276.240926  18278.390316
   12042.5140  609851.690000  51621.218358  18442.481791
   12045.0400  612410.000000  51936.716800  18594.112398
   12047.5660  614950.810000  52304.702494  18768.243778
   12050.0960  617865.120000  52732.247805  18948.924612
   12052.6250  620942.000000  53129.252964  19106.100459
   12055.1540  622084.370000  53341.771337  19161.800245
   12057.6880  626057.250000  53755.813570  19284.020905
   12060.2210  631145.690000  54296.388976  19478.761601
   12062.7540  634323.620000  54652.407452  19627.021522
   12065.2880  637861.060000  55042.988297  19813.796448
   12068.1420  641133.000000  55410.046590  19984.099327
   12070.6780  644341.440000  55806.635157  20138.930285
   12073.2180  648707.440000  56305.703147  20306.252210
   12076.0730  649827.940000  56551.324280  20365.119727
   12078.6150  654962.940000  57121.390081  20557.475660
   12081.4730  657499.500000  57454.021601  20646.400692
   12084.3350  661385.560000  57902.118209  20794.800257
   12086.8780  663593.120000  58195.742001  20913.736473
   12089.7420  668549.190000  58756.863779  21134.187216
   12092.6060  672546.810000  59210.489577  21354.163129
   12095.4740  674016.870000  59510.641201  21535.659450
   12098.3400  678153.560000  60007.331833  21798.687291
   12101.2090  681360.690000  60435.447595  22029.199284
   12104.0800  685214.310000  60937.128397  22283.258367
   12106.9520  688433.500000  61371.326240  22507.818252
   12109.8250  691567.190000  61815.015980  22746.919098
   12112.6970  693173.440000  62117.219805  22936.532430
   12115.8940  699761.120000  62828.891264  23288.650052
   12118.7710  702611.370000  63190.117639  23510.307040
   12121.6500  707406.190000  63737.814909  23799.467990
   12124.8500  710022.440000  64133.033550  24044.153641
   12127.7310  714024.250000  64657.746836  24294.352729
   12130.9360  718476.560000  65231.995785  24564.081675
   12133.8190  722247.370000  65702.744507  24776.328415
   12137.0270  723591.690000  65964.998079  24893.095334
   12140.2350  729446.560000  66605.763286  25123.380576
   12143.4450  732997.940000  67039.023592  25288.182494
   12146.3370  736892.810000  67468.811594  25446.505895
   12149.5510  740201.250000  67801.078960  25580.345653
   12152.7650  744968.120000  68241.878150  25751.707241
   12155.9810  749068.560000  68578.187295  25896.592976
   12159.2000  752322.560000  68872.031598  26031.006057
   12162.4210  757074.000000  69320.314582  26234.916201
   12165.6420  759223.000000  69551.156175  26370.359729
   12169.1890  764531.500000  70066.460541  26618.310082
   12172.4150  768526.500000  70525.337692  26844.805677
   12175.6430  772893.060000  71074.647282  27101.787765
   12178.8720  776563.060000  71584.520027  27342.313569
   12182.4260  781184.690000  72234.848868  27629.333070
   12185.6580  784970.750000  72683.722214  27835.891689
   12189.2180  787365.310000  72999.115246  28009.975684
   12192.4520  792512.440000  73535.052904  28275.587583
   12196.0160  796314.060000  73949.368959  28515.672710
   12199.5790  799975.250000  74387.341757  28759.337286
   12202.8220  804279.870000  74947.682662  29024.459503
   12206.3900  807784.060000  75479.626362  29309.144618
   12209.9610  811940.750000  76149.032153  29652.328923
   12213.5340  817085.000000  76857.966579  30021.041784
   12217.1070  820784.690000  77342.438996  30323.285682
   12220.6860  824953.940000  77791.374270  30599.028328
   12224.2630  829030.690000  78221.862098  30866.312380
   12227.8450  832862.000000  78659.779373  31135.086364
   12231.4270  837544.810000  79281.258717  31467.396144
   12235.0130  840450.060000  79750.222695  31723.217754
   12238.9270  844899.940000  80350.732310  32047.574637
   12242.5160  849064.250000  80927.756426  32346.452686
   12246.1080  853151.120000  81519.209736  32631.820288
   12250.0290  857609.500000  82130.206141  32897.720435
   12253.6250  861347.370000  82622.733988  33114.149638
   12257.5500  864906.750000  83081.802743  33298.115296
   12261.1520  868792.690000  83607.274783  33549.556198
   12265.0810  873215.120000  84225.349606  33853.545661
   12269.0160  875668.060000  84661.935104  34085.067740
   12272.6230  882242.560000  85451.932899  34447.066090
   12276.5610  886871.560000  86091.541752  34761.625719
   12280.5020  889334.060000  86565.550436  35025.663493
   12284.4450  894765.060000  87356.214688  35396.274731
   12288.3910  899699.620000  88078.278902  35773.362495
   12292.3380  904187.620000  88747.821636  36143.964701
   12296.2890  906158.250000  89168.956674  36400.115935
   12300.2430  911495.310000  89906.608546  36808.792701
   12304.1980  916586.870000  90561.651181  37179.935493
   12308.1580  918557.000000  90915.359693  37407.669881
   12312.1190  924704.620000  91627.491920  37796.883676
   12316.0840  928811.810000  92131.061575  38106.590479
   12320.3800  932640.440000  92644.236733  38432.857050
   12324.3490  936293.620000  93191.929432  38749.646139
   12328.6520  941048.310000  93841.057857  39132.928640
   12332.6270  945214.560000  94451.733683  39485.742183
   12336.6040  950139.250000  95115.938502  39874.082554
   12340.9150  953740.500000  95663.576183  40209.915598
   12345.2290  958011.250000  96284.805282  40565.299990
   12349.2150  961562.560000  96801.513347  40886.188965
   12353.5360  965633.370000  97405.748461  41240.613196
   12357.8590  968843.690000  97938.456671  41548.540247
   12362.1870  972934.500000  98560.617240  41890.960439
   12366.1830  977589.810000  99187.417336  42257.956892
   12370.5150  982469.690000  99900.680096  42660.455626
   12374.8510  987063.060000  100614.353657  43068.429219
   12379.1890  991134.940000  101269.642842  43427.969435
   12383.5320  994317.370000  101771.432546  43722.027698
   12387.8760  998734.250000  102392.731357  44067.604790
   12392.5600  1000967.700000  102821.503695  44333.682305
   12396.9110  1007742.700000  103686.731695  44797.263641
   12401.2650  1011022.100000  104217.501756  45098.373354
   12405.6210  1015817.100000  104926.865901  45510.045975
   12410.3170  1020419.600000  105629.659069  45905.199717
   12414.6820  1023406.600000  106210.943054  46259.869947
   12419.0490  1027936.200000  106962.829027  46688.093819
   12423.7550  1034042.300000  107937.133814  47239.804993
   12428.1290  1036883.800000  108529.947416  47621.033693
   12432.8420  1040270.900000  109122.318267  48012.799854
   12437.5600  1043019.500000  109630.229259  48361.103837
   12441.9420  1049481.600000  110479.568891  48865.889994
   12446.6660  1051977.300000  110962.445487  49220.210177
   12451.3950  1057358.400000  111702.825506  49706.047275
   12456.1250  1061812.000000  112374.738038  50141.412409
   12460.5220  1063989.300000  112817.177860  50468.309945
   12465.2610  1067134.900000  113413.980956  50867.660732
   12470.0030  1072669.100000  114312.429266  51416.591252
   12474.7480  1079684.900000  115359.405292  52029.050096
   12479.4980  1082763.100000  115990.753746  52441.972827
   12484.2500  1085303.900000  116549.761474  52826.476766
   12489.0070  1090365.100000  117385.204526  53317.466185
   12494.1070  1093055.900000  118028.088056  53734.950146
   12498.8710  1097436.300000  118793.548781  54199.988825
   12503.6400  1100102.100000  119347.484114  54573.519413
   12508.4110  1103978.400000  120029.993985  55000.609194
   12513.5270  1105891.300000  120537.980622  55381.200508
   12518.3070  1111337.600000  121381.516466  55895.328839
   12523.4320  1115109.500000  122045.495036  56336.947745
   12528.2200  1118323.900000  122619.041507  56747.121098
   12533.3520  1122774.900000  123371.051034  57229.785559
   12538.1460  1127175.300000  124137.527982  57717.951769
   12543.2880  1130030.300000  124730.539380  58148.653642
   12548.0900  1134093.800000  125449.112332  58583.893094
   12553.2390  1139695.800000  126319.152866  59152.636567
   12558.3930  1141527.300000  126834.664196  59538.882206
   12563.5510  1145278.300000  127584.761937  60037.684690
   12568.7130  1148867.800000  128287.291621  60538.971499
   12573.5360  1152662.900000  128982.419198  61000.820188
   12578.7070  1156931.400000  129744.020235  61529.167715
   12583.8810  1159287.500000  130327.025344  61971.987675
   12589.0610  1164337.100000  131182.724022  62539.420829
   12594.2440  1167274.100000  131770.724987  62994.270667
   12599.4320  1172244.900000  132613.370679  63585.706680
   12604.9720  1175247.000000  133266.464615  64084.634080
   12610.1680  1178458.600000  133925.087130  64576.088316
   12615.3690  1180985.800000  134489.320233  65040.112336
   12620.5740  1186403.500000  135443.928236  65680.596100
   12625.7840  1189940.800000  136210.139549  66229.636032
   12631.3480  1193523.500000  137015.784644  66811.173570
   12636.5660  1196130.800000  137721.880526  67333.190879
   12642.1370  1200341.500000  138595.605323  67933.784854
   12647.3640  1202807.800000  139217.705704  68404.843667
   12652.9450  1205699.500000  139863.531950  68915.524740
   12658.1840  1208587.900000  140459.604123  69375.600806
   12663.7740  1211229.600000  141080.312576  69859.244229
   12669.0200  1216225.000000  141976.574872  70486.441932
   12674.6200  1217566.900000  142481.305569  70915.136537
   12680.2280  1224369.300000  143630.514887  71667.347058
   12685.8370  1225284.100000  144082.206399  72073.051906
   12691.1020  1231598.500000  145176.493403  72809.314840
   12696.7220  1233309.500000  145742.225935  73292.074980
   12702.3490  1235029.900000  146295.486900  73769.366643
   12707.9790  1238485.900000  147090.326510  74367.213364
   12713.6130  1241826.400000  147874.579425  74975.521343
   12719.2550  1248040.300000  149004.400650  75753.393349
   12724.9010  1250491.800000  149689.656311  76300.751912
   12730.5510  1252945.900000  150418.404983  76902.599347
   12736.2080  1255819.400000  151139.695799  77473.004518
   12741.8680  1257704.400000  151752.580312  78017.958198
   12747.8890  1261546.000000  152656.947681  78723.438502
   12753.5620  1263052.100000  153246.750778  79252.374344
   12759.2370  1267315.600000  154121.035981  79902.835611
   12764.9190  1269600.800000  154762.982176  80444.885626
   12770.9620  1273030.400000  155506.336326  81090.407877
   12776.6540  1280262.600000  156758.200216  81956.448648
   12782.3510  1281256.300000  157248.500529  82459.977956
   12788.4100  1284231.400000  158017.326132  83107.037557
   12794.1190  1285167.100000  158540.808616  83605.677276
   12800.1890  1287866.400000  159227.687473  84206.799705
   12806.2660  1290512.000000  159929.056149  84828.410641
   12811.9890  1294708.300000  160869.052864  85554.619607
   12818.0770  1296255.000000  161484.411828  86125.265910
   12824.1700  1296760.400000  161973.288081  86634.440538
   12829.9100  1301463.100000  162942.824956  87363.211424
   12836.0160  1303534.500000  163594.646451  87956.387956
   12842.1270  1307169.300000  164461.128031  88671.154945
   12848.2440  1311339.600000  165368.032350  89387.405048
   12854.3660  1311725.500000  165841.535176  89897.220656
   12860.4950  1312779.900000  166402.612581  90461.588928
   12866.2690  1313555.800000  166919.070996  90975.413632
   12872.4080  1318301.100000  168004.059226  91835.767063
   12878.5550  1320856.000000  168764.506458  92493.612701
   12885.0690  1322693.500000  169487.548989  93195.027459

