# XDI/1.0
# Column.1: energy eV
# Column.2: i0
# Column.3: itrans
# Column.4: irefer
# Beamline.name: SSRL 2-3
# Beamline.notes: vert slits = 0.6mm
# Detector.I0: N2 15cm
# Detector.I1: Ar 30cm
# Detector.I2: Ar 15cm
# Element.edge: K
# Element.symbol: As
# Mono.d_spacing: 3.13550
# Mono.name: Si(111)
# Mono.notes: unfocused, detuned 75%, clockwise at E=12000eV
# Sample.formula: As2O5
# Sample.name: As2O5 arsenic (V) oxide
# Sample.prep: powder on tape (5 layers)
# Sample.reference: GaAs powder
# Sample.temperature: 10K
# Scan.start_time: 1997-04-19 18:40:39
# ///
#    Note: mono d_spacing is nominal!
#     exafs to K16, GaAs in IR
#     413  E XMU XMUR I0
#-------------
#   energy   i0   itrans  irefer
   11634.8900  546103.310000  96985.469693  39786.985857
   11644.9080  543570.310000  96898.502376  39984.999186
   11654.9440  541284.310000  96855.547509  40193.020760
   11664.9980  538197.310000  96653.482796  40353.992645
   11675.0700  535365.310000  96505.532307  40538.013398
   11684.8620  531859.310000  96203.525007  40651.010713
   11694.9690  528338.310000  95924.537741  40761.015295
   11705.0930  525931.310000  95837.458404  40950.982998
   11714.9370  524405.310000  95896.537670  41238.017169
   11725.0950  521703.310000  95756.456314  41391.980513
   11734.9740  518512.310000  95499.476801  41519.988793
   11744.8670  515822.310000  95339.513380  41689.005865
   11755.0790  512779.310000  95125.546161  41840.018323
   11765.0090  510711.310000  95058.498853  42045.000261
   11774.9540  508291.310000  94917.465341  42224.985872
   11784.9180  505201.310000  94661.463363  42343.985135
   11794.8960  502459.310000  94442.545127  42478.019824
   11804.8950  500003.310000  94239.528660  42624.014641
   11814.9090  497106.310000  93952.459717  42709.979576
   11824.9400  494662.310000  93658.513064  42796.008023
   11834.9890  492100.310000  93255.457084  42800.979071
   11845.0570  489219.310000  92504.461487  42588.981758
   11845.3610  488982.310000  92443.469111  42554.985362
   11845.9730  489338.310000  92478.491278  42567.995465
   11846.5830  489343.310000  92453.545595  42574.020021
   11846.8890  488513.310000  92288.516405  42498.008575
   11847.4990  488393.310000  92236.510479  42467.005972
   11848.1100  488713.310000  92247.486822  42462.992820
   11848.4150  488356.310000  92154.478484  42432.988181
   11849.0270  487757.310000  91994.516000  42358.006833
   11849.6370  487569.310000  91914.468527  42320.984677
   11849.9420  487496.310000  91886.463375  42299.984566
   11850.5560  487062.310000  91742.529521  42234.011727
   11850.8600  486652.310000  91651.461950  42197.983081
   11851.4710  486572.310000  91549.473823  42134.986283
   11852.0830  486796.310000  91539.519027  42123.007210
   11852.3900  486720.310000  91484.507956  42083.003675
   11853.0000  486633.310000  91393.456372  42030.980721
   11853.6100  486377.310000  91265.485367  41962.991737
   11853.9170  486615.310000  91253.458496  41947.980582
   11854.5290  487410.310000  91315.477248  41946.990662
   11855.1400  486906.310000  91114.478615  41848.988318
   11855.4460  486186.310000  90937.540648  41751.016752
   11856.0580  487115.310000  90972.464356  41727.983515
   11856.3630  486936.310000  90862.496314  41656.996356
   11856.9760  486365.310000  90628.524931  41515.012475
   11857.5880  486000.310000  90385.536647  41357.015221
   11857.8940  485955.310000  90321.512430  41310.006755
   11858.5040  486082.310000  90121.519088  41152.010003
   11859.1180  485875.310000  89855.518214  40958.007200
   11859.4240  485573.310000  89708.477610  40842.988862
   11860.0350  485786.310000  89468.520383  40633.007782
   11860.6470  486027.310000  89229.510113  40399.003375
   11860.9550  485922.310000  89093.533417  40278.013734
   11861.5660  485245.310000  88612.466832  39861.986755
   11861.8720  485429.310000  88459.487130  39694.993628
   11862.4840  485212.310000  87968.478173  39192.991703
   11863.0980  484792.310000  87400.462326  38550.981974
   11863.4030  484114.310000  87057.520601  38206.010895
   11864.0170  484155.310000  86384.541646  37231.018470
   11864.6280  483568.310000  85537.475276  35934.990524
   11864.9350  483412.310000  85108.501729  35199.002122
   11865.5470  482650.310000  83974.517992  33215.007123
   11865.8540  482820.310000  83572.503079  32408.001606
   11866.4670  483362.310000  82292.460759  29896.980739
   11867.0780  483445.310000  80628.500867  27268.990999
   11867.3880  482754.310000  79654.525278  26058.000691
   11867.9990  482561.310000  77278.515478  23595.003655
   11868.6110  483347.310000  74315.494045  21402.001883
   11868.9190  483402.310000  73023.495601  20680.004080
   11869.5320  482780.310000  68417.504488  18710.010574
   11870.1450  482452.310000  62809.483707  16879.993034
   11870.4510  482453.310000  59876.502494  16035.005069
   11871.0640  482785.310000  52321.483551  13990.997150
   11871.3710  481512.310000  49306.494017  13202.996308
   11871.9850  480752.310000  40326.514855  10863.007278
   11872.5990  480889.310000  31791.505100  8633.000428
   11872.9050  480870.310000  28196.492985  7692.998334
   11873.5180  480340.310000  20807.506934  5742.001436
   11874.1330  479956.310000  15473.503026  4317.998907
   11874.4390  480300.310000  14072.500222  3944.000463
   11875.0530  480524.310000  11682.497952  3332.000320
   11875.3580  480348.310000  11307.502988  3245.000443
   11875.9750  479513.310000  11605.494526  3404.999021
   11876.5880  480540.310000  13114.495126  3923.998332
   11876.8940  480608.310000  13890.506401  4185.003809
   11877.5090  480352.310000  16321.492766  4996.995410
   11878.1230  479433.310000  18901.490895  5859.995304
   11878.4300  479585.310000  20147.491574  6271.996926
   11879.0440  479943.310000  22851.505303  7174.004402
   11879.3510  479434.310000  23758.488759  7476.994363
   11879.9660  478558.310000  26186.501379  8293.997525
   11880.5800  479013.310000  28277.498548  9006.003262
   11880.8870  478610.310000  29060.495742  9272.997825
   11881.5000  478394.310000  30506.485756  9769.998463
   11882.1160  477932.310000  31570.499095  10137.000154
   11882.4240  477810.310000  31870.499862  10237.002096
   11883.0370  477637.310000  32464.483578  10435.992815
   11883.6520  477652.310000  32792.508269  10541.997938
   11883.9590  476610.310000  32823.515577  10543.000677
   11884.5740  476522.310000  32957.489780  10588.998053
   11884.8810  476316.310000  32980.489203  10589.999902
   11885.4960  475896.310000  33031.511321  10610.000443
   11886.1100  475668.310000  33099.486994  10637.992418
   11886.4190  474899.310000  33078.509199  10640.003391
   11887.0340  475637.310000  33234.503889  10697.997881
   11887.6480  476049.310000  33377.514053  10755.007298
   11887.9550  475100.310000  33379.500721  10757.002746
   11888.5720  475171.310000  33554.513726  10820.001279
   11888.8790  475393.310000  33666.506895  10855.007372
   11889.4930  476223.310000  33983.492190  10954.999012
   11890.1090  475416.310000  34206.506082  11021.003511
   11890.4170  475367.310000  34353.496003  11062.995380
   11891.0320  475095.310000  34741.482586  11179.999651
   11891.6480  476069.310000  35229.487778  11328.995955
   11891.9560  474818.310000  35344.515281  11365.008732
   11892.5700  474743.310000  35774.496740  11504.994644
   11892.8790  475254.310000  35971.503309  11573.002909
   11893.4950  475184.310000  36391.482493  11728.992286
   11894.1090  474839.310000  36752.507406  11871.000012
   11894.4190  474106.310000  36877.498904  11926.998111
   11895.0350  474805.310000  37292.485541  12096.000325
   11895.6490  475321.060000  37648.250718  12262.753427
   11896.2660  475146.340000  37924.518946  12400.041766
   11896.8810  474357.120000  38103.283356  12500.835171
   11897.4980  474800.440000  38345.554021  12598.157706
   11898.4220  475209.250000  38681.336911  12717.986271
   11899.0380  475302.590000  38925.658425  12782.354086
   11899.6550  474667.440000  39161.433864  12849.224156
   11900.5800  474432.810000  39733.752140  13010.620772
   11901.1950  475731.720000  40291.562585  13184.541989
   11902.1210  475917.090000  41039.895657  13423.979980
   11903.0450  475549.030000  41791.709778  13669.922607
   11903.6620  476090.470000  42337.063124  13857.393254
   11904.5870  476962.410000  43093.909781  14118.396775
   11905.5130  477093.870000  43793.274877  14365.913234
   11906.4380  477245.870000  44419.111181  14593.931751
   11907.3630  477489.370000  45062.476696  14822.479268
   11908.2910  477878.370000  45639.348222  15026.544103
   11909.2150  479586.910000  46333.772795  15260.154178
   11910.1430  479327.970000  46689.628882  15387.247168
   11911.0680  480093.530000  47042.052659  15497.890829
   11912.3030  480925.590000  47248.956054  15547.029005
   11913.2290  481583.220000  47256.397953  15529.711363
   11914.1560  482270.310000  47115.298914  15468.887769
   11915.3920  482036.940000  46638.750441  15310.605376
   11916.3180  483081.090000  46333.652261  15222.818629
   11917.5560  484309.750000  45808.134355  15094.564035
   11918.7930  485616.940000  45181.066838  14946.828305
   11919.7190  485814.620000  44620.531954  14821.607923
   11920.9570  486752.840000  43931.494562  14662.914440
   11922.1930  487682.560000  43331.970114  14500.725786
   11923.4320  488677.810000  42852.988978  14364.090791
   11924.6690  489589.560000  42466.452337  14254.938491
   11925.9080  489271.840000  42049.489458  14129.336589
   11927.1460  490125.620000  41779.998724  14049.231905
   11928.3840  491340.940000  41555.017230  13971.649848
   11929.6230  492883.750000  41330.525576  13880.588385
   11930.8610  493935.090000  41041.555894  13774.046207
   11932.4110  495317.970000  40649.109124  13604.027927
   11933.6510  496835.310000  40381.130256  13475.518611
   11934.8910  498203.220000  40116.714426  13351.544434
   11936.4410  499719.620000  39854.773356  13214.070134
   11937.9920  500459.530000  39673.352329  13127.138602
   11939.2320  501865.970000  39640.411566  13108.699477
   11940.7840  502217.940000  39519.023711  13079.801485
   11942.3360  503438.410000  39528.082985  13115.403524
   11943.5770  504605.370000  39584.699932  13150.551255
   11945.1300  507844.870000  39811.826919  13258.210580
   11946.6840  510887.910000  40036.446907  13355.378825
   11948.2370  513319.440000  40232.548872  13444.059578
   11949.7910  515294.470000  40422.175127  13533.275759
   11951.3460  515874.030000  40549.344199  13592.016628
   11952.8990  518594.120000  40880.964327  13726.256546
   11954.7670  519919.720000  41168.130071  13864.025824
   11956.3220  522468.840000  41537.820339  14028.322836
   11957.8780  524634.440000  41881.982198  14172.120863
   11959.7450  526797.620000  42277.644690  14326.449612
   11961.3010  529063.250000  42621.848182  14443.305066
   11963.1710  530196.440000  42887.550230  14525.672184
   11964.7290  532949.120000  43225.731735  14635.542088
   11966.5980  534918.370000  43515.454716  14746.948143
   11968.4700  536309.060000  43759.669231  14862.876581
   11970.0270  539455.310000  44165.411845  15064.333731
   11971.9000  542164.060000  44622.653200  15318.291686
   11973.7710  543993.370000  45092.370302  15576.775567
   11975.6440  546365.120000  45673.646576  15850.776192
   11977.5190  548777.440000  46265.380855  16094.296711
   11979.3920  551410.250000  46899.644125  16342.336755
   11981.2670  553574.620000  47459.445047  16554.907075
   11983.1410  555962.500000  47981.707568  16740.984021
   11985.0170  557422.870000  48349.512735  16866.579911
   11987.2060  558019.750000  48610.781896  16927.700383
   11989.0830  562345.120000  49116.584810  17061.334347
   11991.2730  566153.060000  49577.914663  17156.488936
   11993.1510  568896.500000  49934.718358  17228.164568
   11995.3440  571175.440000  50271.052423  17268.368420
   11997.2250  573149.940000  50549.869197  17323.073789
   11999.4170  575616.870000  50841.211878  17399.305352
   12001.2990  577828.370000  51088.063905  17480.061471
   12003.4940  580953.440000  51379.415518  17613.340818
   12005.6880  583371.940000  51607.290895  17738.137079
   12007.8860  586288.000000  51844.670185  17867.459196
   12010.0830  587896.560000  51971.579134  17955.294220
   12012.2820  589995.620000  52115.953606  18051.650357
   12014.4810  593380.250000  52325.845380  18175.516197
   12016.6820  598227.370000  52676.261022  18359.899275
   12018.8810  600942.000000  52851.147478  18461.812768
   12021.0830  603866.120000  53051.573098  18595.237838
   12023.6020  607058.810000  53250.525479  18730.190227
   12025.8040  609641.000000  53365.969062  18825.668029
   12028.0080  612704.690000  53462.906359  18904.652851
   12030.5270  615732.870000  53505.326885  18974.144125
   12032.7330  618288.620000  53513.308024  19026.188478
   12035.2570  621991.870000  53623.801209  19107.731083
   12037.7800  624705.620000  53703.733851  19178.800546
   12039.9890  628096.870000  53903.230229  19288.390881
   12042.5140  631163.690000  54159.220856  19429.494421
   12045.0400  634923.000000  54575.700161  19620.103546
   12047.5660  637604.810000  54968.740624  19798.252404
   12050.0960  639580.120000  55336.232813  19975.907023
   12052.6250  642925.000000  55793.260174  20154.106753
   12055.1540  645065.370000  56102.796541  20243.801754
   12057.6880  646689.250000  56318.827070  20296.021578
   12060.2210  653528.690000  57015.401561  20537.765979
   12062.7540  656241.620000  57368.423820  20691.025268
   12065.2880  661154.060000  57879.015009  20903.819298
   12068.1420  663833.000000  58202.051998  21071.103760
   12070.6780  667027.440000  58569.623068  21214.908900
   12073.2180  671037.440000  59071.698370  21390.244054
   12076.0730  674805.940000  59538.320856  21534.130752
   12078.6150  677710.940000  59920.390418  21650.484974
   12081.4730  679591.500000  60215.987031  21733.370326
   12084.3350  684210.560000  60728.111120  21902.804906
   12086.8780  687718.120000  61149.766563  22055.743511
   12089.7420  692322.190000  61672.889353  22269.197370
   12092.6060  694193.810000  61992.486155  22434.146302
   12095.4740  699435.870000  62606.688042  22743.675577
   12098.3400  701823.560000  62961.286242  22952.664578
   12101.2090  704596.690000  63365.501198  23182.219134
   12104.0800  708511.310000  63875.126075  23452.240225
   12106.9520  712364.500000  64380.302120  23706.816400
   12109.8250  714351.190000  64709.026451  23894.922870
   12112.6970  718130.440000  65211.199383  24163.524012
   12115.8940  723274.120000  65808.913505  24490.656875
   12118.7710  725840.370000  66144.127732  24706.310939
   12121.6500  730289.190000  66686.838284  24991.475991
   12124.8500  733339.440000  67124.068653  25249.167324
   12127.7310  737771.250000  67689.753520  25535.356397
   12130.9360  741910.560000  68261.007070  25815.087216
   12133.8190  745525.370000  68738.755340  26034.332936
   12137.0270  747903.690000  69107.012778  26186.102026
   12140.2350  753434.560000  69737.777073  26427.384554
   12143.4450  757068.940000  70177.048933  26574.192001
   12146.3370  760254.810000  70553.808046  26709.506572
   12149.5510  763556.250000  70899.103991  26847.354730
   12152.7650  766755.120000  71223.903152  26979.717514
   12155.9810  771399.560000  71612.201781  27141.599162
   12159.2000  774880.560000  71897.026034  27265.004716
   12162.4210  779204.000000  72321.314045  27463.915675
   12165.6420  782216.000000  72615.174652  27620.366499
   12169.1890  785795.500000  72961.476338  27812.317009
   12172.4150  791040.500000  73515.345554  28075.807641
   12175.6430  794652.060000  74020.668516  28331.794610
   12178.8720  800305.060000  74733.539449  28642.321019
   12182.4260  803164.690000  75237.876899  28888.343837
   12185.6580  807586.750000  75794.784155  29134.914899
   12189.2180  810213.310000  76130.087805  29314.965650
   12192.4520  814222.440000  76588.014550  29555.572256
   12196.0160  818611.060000  77070.383428  29826.679399
   12199.5790  821310.250000  77380.277145  30022.311769
   12202.8220  825875.870000  77950.692844  30315.465165
   12206.3900  829223.060000  78507.659252  30601.159185
   12209.9610  833431.750000  79182.064530  30941.341899
   12213.5340  837696.000000  79839.970792  31296.042948
   12217.1070  840788.690000  80301.425100  31592.282561
   12220.6860  845862.940000  80861.380519  31909.033037
   12224.2630  850235.690000  81307.852077  32206.309914
   12227.8450  853724.000000  81704.816739  32458.100966
   12231.4270  858669.810000  82350.247268  32796.393637
   12235.0130  862351.060000  82909.234562  33100.224007
   12238.9270  866698.940000  83519.711771  33424.570496
   12242.5160  871205.250000  84126.750643  33748.450251
   12246.1080  875406.120000  84746.200706  34044.814009
   12250.0290  879241.500000  85319.207413  34313.721022
   12253.6250  883009.370000  85818.775575  34541.165378
   12257.5500  887285.750000  86375.760247  34778.096711
   12261.1520  891571.690000  86915.279826  35015.557023
   12265.0810  895838.120000  87525.372872  35305.555353
   12269.0160  893997.060000  87652.881560  35418.046790
   12272.6230  903248.560000  88621.968273  35867.079736
   12276.5610  908661.560000  89337.533151  36205.621746
   12280.5020  912245.060000  89923.621509  36493.689678
   12284.4450  913528.060000  90336.184313  36743.263119
   12288.3910  920520.620000  91298.230047  37214.344854
   12292.3380  925706.620000  92047.832406  37611.970323
   12296.2890  926783.250000  92368.934874  37838.107112
   12300.2430  932918.310000  93195.612159  38273.794326
   12304.1980  937440.870000  93838.731246  38647.967404
   12308.1580  940297.000000  94292.323648  38930.654854
   12312.1190  944821.620000  94835.437032  39255.860602
   12316.0840  949349.810000  95384.046762  39578.583045
   12320.3800  953499.440000  95931.254667  39926.862290
   12324.3490  958223.620000  96592.893719  40295.631942
   12328.6520  963348.310000  97304.091535  40708.940598
   12332.6270  968080.560000  97963.729885  41099.740473
   12336.6040  974033.250000  98737.956874  41536.092192
   12340.9150  977298.500000  99288.636902  41886.942039
   12345.2290  981976.250000  99951.805291  42259.298935
   12349.2150  985853.560000  100516.493082  42595.180978
   12353.5360  989141.370000  101069.688471  42924.590368
   12357.8590  992496.690000  101617.389556  43259.509305
   12362.1870  997847.500000  102388.710656  43677.000492
   12366.1830  1001257.800000  102911.386080  43993.944023
   12370.5150  1005511.700000  103560.692846  44383.458564
   12374.8510  1011196.100000  104393.369885  44850.434064
   12379.1890  1013951.900000  104942.622365  45182.961018
   12383.5320  1018971.400000  105647.382240  45560.005810
   12387.8760  1021247.200000  106056.705056  45818.594603
   12392.5600  1024616.700000  106569.448415  46127.660016
   12396.9110  1030886.700000  107416.798952  46577.290064
   12401.2650  1034926.100000  108008.540444  46919.393722
   12405.6210  1039600.100000  108709.849191  47316.037582
   12410.3170  1043010.600000  109314.671532  47678.207036
   12414.6820  1048184.600000  110122.016771  48140.903214
   12419.0490  1051443.100000  110780.845022  48534.101788
   12423.7550  1055734.300000  111606.112813  49032.793176
   12428.1290  1061451.800000  112540.017856  49564.059919
   12432.8420  1066527.900000  113315.356575  50029.818512
   12437.5600  1068613.500000  113760.150930  50358.070424
   12441.9420  1075261.600000  114664.590197  50894.901920
   12446.6660  1076897.300000  115051.437979  51228.207862
   12451.3950  1081838.400000  115729.792073  51669.031347
   12456.1250  1086613.000000  116418.772489  52127.430012
   12460.5220  1091069.300000  117110.098310  52558.272347
   12465.2610  1093494.900000  117648.007145  52955.671468
   12470.0030  1098648.100000  118520.471739  53492.614784
   12474.7480  1102401.900000  119240.400046  53972.050205
   12479.4980  1106358.100000  119983.821044  54438.003791
   12484.2500  1111030.900000  120763.682897  54920.440522
   12489.0070  1116573.100000  121700.187613  55483.459072
   12494.1070  1120014.900000  122443.079857  55945.945619
   12498.8710  1124831.300000  123307.513843  56464.970111
   12503.6400  1125669.100000  123660.498260  56767.529208
   12508.4110  1130558.400000  124453.972523  57264.595258
   12513.5270  1132209.300000  124941.063694  57628.234833
   12518.3070  1138634.600000  125934.521879  58223.334118
   12523.4320  1143264.500000  126673.517181  58692.957524
   12528.2200  1148069.900000  127432.965242  59200.084161
   12533.3520  1150553.900000  127979.968755  59595.749688
   12538.1460  1155761.300000  128844.537252  60134.958222
   12543.2880  1160231.300000  129636.536390  60653.652780
   12548.0900  1163626.800000  130274.134655  61089.900525
   12553.2390  1168321.800000  131107.112154  61635.613156
   12558.3930  1171426.300000  131767.676469  62088.888586
   12563.5510  1174241.300000  132421.698483  62558.656204
   12568.7130  1178862.800000  133288.309673  63133.972996
   12573.5360  1183643.900000  134093.458733  63678.839031
   12578.7070  1187504.400000  134824.946062  64199.128842
   12583.8810  1190215.500000  135464.100214  64668.024148
   12589.0610  1196845.100000  136514.698526  65333.406492
   12594.2440  1199640.100000  137137.747120  65820.278459
   12599.4320  1202192.900000  137676.342283  66266.698421
   12604.9720  1205074.000000  138301.523543  66769.657935
   12610.1680  1210066.600000  139144.182319  67356.134217
   12615.3690  1213725.800000  139866.316070  67880.111380
   12620.5740  1219637.500000  140867.955027  68567.609769
   12625.7840  1223429.800000  141640.124305  69122.632165
   12631.3480  1225227.500000  142285.673235  69621.116549
   12636.5660  1229577.800000  143209.864369  70252.179835
   12642.1370  1233976.500000  144155.583966  70912.779245
   12647.3640  1235520.800000  144664.730337  71346.854723
   12652.9450  1239962.500000  145517.509009  71964.512546
   12658.1840  1242396.900000  146074.647700  72409.620953
   12663.7740  1247242.600000  146955.302170  73025.235535
   12669.0200  1247854.000000  147329.644373  73393.476445
   12674.6200  1252930.900000  148249.372585  74058.172980
   12680.2280  1256525.300000  149053.528346  74649.348166
   12685.8370  1260128.100000  149830.351110  75221.121418
   12691.1020  1263620.500000  150571.535814  75805.336480
   12696.7220  1267596.500000  151464.286834  76461.103970
   12702.3490  1270924.900000  152195.546188  77044.400236
   12707.9790  1274675.900000  153048.249701  77673.172633
   12713.6130  1277361.400000  153754.599708  78255.531971
   12719.2550  1281483.300000  154657.425696  78939.411416
   12724.9010  1281354.800000  155051.641851  79356.744060
   12730.5510  1286325.900000  156096.482581  80103.639833
   12736.2080  1287713.400000  156669.793818  80629.054835
   12741.8680  1289392.400000  157256.523347  81161.928684
   12747.8890  1292369.000000  158077.947073  81820.436493
   12753.5620  1298555.100000  159205.761611  82610.382089
   12759.2370  1302471.600000  160076.042694  83316.838297
   12764.9190  1305060.800000  160767.931954  83896.853409
   12770.9620  1308667.400000  161557.262525  84559.374679
   12776.6540  1314217.600000  162602.209658  85331.450111
   12782.3510  1314686.300000  163051.542262  85825.001860
   12788.4100  1319409.400000  164084.328069  86583.034613
   12794.1190  1322253.100000  164827.826679  87219.685312
   12800.1890  1322618.400000  165256.644572  87688.774045
   12806.2660  1323700.000000  165796.996066  88218.379417
   12811.9890  1326777.300000  166592.914380  88893.551034
   12818.0770  1330784.000000  167549.448266  89645.286432
   12824.1700  1333295.400000  168273.377018  90275.490544
   12829.9100  1335133.100000  168937.743642  90862.172117
   12836.0160  1340258.500000  169942.778748  91678.453538
   12842.1270  1342271.300000  170642.113200  92305.152011
   12848.2440  1344757.600000  171335.059690  92932.419109
   12854.3660  1344862.500000  171752.597777  93419.252760
   12860.4950  1349457.900000  172734.586652  94227.572008
   12866.2690  1352180.800000  173525.051059  94911.404805
   12872.4080  1353753.100000  174191.991135  95537.733845
   12878.5550  1356023.000000  174949.512099  96213.620223
   12885.0690  1357258.500000  175622.558011  96893.034742

