# XDI/1.0
# Column.1: energy eV
# Column.2: i0
# Column.3: itrans
# Column.4: irefer
# Beamline.name: SSRL 2-3
# Beamline.notes: vert slits = 0.6mm
# Detector.I0: N2 15cm
# Detector.I1: Ar 30cm
# Detector.I2: Ar 15cm
# Element.edge: K
# Element.symbol: As
# Mono.d_spacing: 3.13550
# Mono.name: Si(111)
# Mono.notes: unfocused, detuned 75%, clockwise at E=12000eV
# Sample.formula: As2S3
# Sample.name: As2S3 arsenious sulfide (orpiment)
# Sample.prep: powder on tape (5 layers)
# Sample.reference: GaAs powder
# Sample.temperature: 10K
# Scan.start_time: 1997-04-19 16:23:01
# ///
#    Note: mono d_spacing is nominal!
#     exafs to K16, GaAs in IR
#     413  E XMU XMUR I0
#-------------
#   energy   i0   itrans  irefer
   11634.8900  583761.310000  92987.510044  38257.005106
   11644.9080  581622.310000  93012.536503  38498.015141
   11654.9440  579259.310000  93014.485184  38721.993097
   11664.9980  576621.310000  92973.521964  38936.010514
   11675.0700  574120.310000  92927.532936  39136.012295
   11684.8620  569563.310000  92549.528494  39213.012545
   11694.9690  565371.310000  92253.544148  39322.017398
   11705.0930  562943.310000  92215.472439  39535.987392
   11714.9370  561438.310000  92320.470737  39809.986652
   11725.0950  559764.310000  92399.523355  40057.011231
   11734.9740  557078.310000  92303.478021  40257.991168
   11744.8670  553807.310000  92099.527261  40392.010696
   11755.0790  550642.310000  91946.458352  40551.981023
   11765.0090  548254.310000  91890.463047  40752.983374
   11774.9540  546050.310000  91827.527302  40957.011406
   11784.9180  541802.310000  91455.470554  41019.985256
   11794.8960  539035.310000  91305.504768  41191.003834
   11804.8950  536693.310000  91202.454860  41358.977752
   11814.9090  533678.310000  90950.485378  41466.992184
   11824.9400  530495.310000  90614.488483  41524.994261
   11834.9890  527822.310000  90235.479561  41536.991555
   11845.0570  525140.310000  89533.466613  41335.983178
   11845.3610  524754.310000  89472.487170  41314.993470
   11845.9730  523883.310000  89302.543372  41240.021013
   11846.5830  524671.310000  89377.501580  41271.000668
   11846.8890  524794.310000  89398.543969  41270.018637
   11847.4990  524224.310000  89277.515070  41229.007133
   11848.1100  523635.310000  89133.519866  41166.008060
   11848.4150  524161.310000  89202.536962  41193.018185
   11849.0270  523763.310000  89083.477877  41142.990969
   11849.6370  523628.310000  88983.512571  41096.004414
   11849.9420  523005.310000  88859.513001  41032.006848
   11850.5560  522873.310000  88756.458508  40987.981830
   11850.8600  522712.310000  88698.522884  40959.011053
   11851.4710  522021.310000  88486.536527  40851.016749
   11852.0830  521618.310000  88354.498433  40786.001152
   11852.3900  521373.310000  88266.470334  40741.988172
   11853.0000  521783.310000  88249.531477  40733.012710
   11853.6100  521695.310000  88094.466367  40654.983351
   11853.9170  521462.310000  87984.529645  40580.014817
   11854.5290  521355.310000  87833.483262  40513.991609
   11855.1400  521730.310000  87722.533681  40449.015595
   11855.4460  521746.310000  87668.484022  40405.991304
   11856.0580  521879.310000  87505.474249  40312.986159
   11856.3630  521423.310000  87318.487227  40215.995201
   11856.9760  521586.310000  87111.487527  40098.994697
   11857.5880  521783.310000  86874.485951  39952.992948
   11857.8940  521684.310000  86734.491874  39865.996194
   11858.5040  521024.310000  86278.522848  39620.010288
   11859.1180  520569.310000  85836.475593  39371.989600
   11859.4240  520830.310000  85625.513027  39249.004786
   11860.0350  520328.310000  85053.458109  38913.980336
   11860.6470  520418.310000  84454.500227  38562.998571
   11860.9550  520257.310000  84127.500918  38380.998873
   11861.5660  520104.310000  83320.480859  37893.992399
   11861.8720  519678.310000  82795.522639  37596.008413
   11862.4840  518631.310000  81510.532528  36851.014374
   11863.0980  518822.310000  80125.523968  36033.009706
   11863.4030  519118.310000  79459.528360  35636.012542
   11864.0170  518475.310000  77329.491927  34390.996773
   11864.6280  518430.310000  74523.507438  32777.002025
   11864.9350  517503.310000  72687.535688  31738.016507
   11865.5470  517756.310000  68348.504818  29311.003381
   11865.8540  517767.310000  66244.532479  28164.013130
   11866.4670  517293.310000  59868.473302  24797.988584
   11867.0780  517041.310000  51737.495733  20713.997399
   11867.3880  518301.310000  47369.509048  18605.003551
   11867.9990  517905.310000  37914.492480  14231.996811
   11868.6110  517594.310000  28718.506768  10187.003591
   11868.9190  517196.310000  25468.503002  8796.003867
   11869.5320  517599.310000  19042.501654  6083.002523
   11870.1450  518159.310000  15587.506737  4569.001739
   11870.4510  517841.310000  15056.500788  4262.998747
   11871.0640  517381.310000  16105.505115  4372.002518
   11871.3710  517161.310000  17196.499359  4634.001907
   11871.9850  516939.310000  21031.503470  5665.003310
   11872.5990  516115.310000  25477.487256  6916.993497
   11872.9050  515843.310000  27704.505588  7553.998733
   11873.5180  515786.310000  31892.489774  8795.995418
   11874.1330  515840.310000  34829.483003  9692.992879
   11874.4390  515257.310000  35657.496561  9972.002406
   11875.0530  514710.310000  36827.514320  10409.004382
   11875.3580  515060.310000  37034.503332  10526.995951
   11875.9750  515934.310000  36856.516855  10624.009120
   11876.5880  515508.310000  36154.500051  10583.005117
   11876.8940  515456.310000  35839.496777  10563.002307
   11877.5090  515593.310000  35215.498916  10577.999187
   11878.1230  515561.310000  34864.503832  10656.001232
   11878.4300  515049.310000  34761.506644  10699.998953
   11879.0440  514890.310000  34803.497607  10853.003779
   11879.3510  514836.310000  34875.514945  10919.006709
   11879.9660  515110.310000  35171.499168  11112.005183
   11880.5800  514964.310000  35470.508236  11278.007578
   11880.8870  514144.310000  35578.516436  11347.006729
   11881.5000  513789.310000  35843.501402  11485.005083
   11882.1160  514341.310000  36157.488298  11626.001198
   11882.4240  514598.310000  36280.507579  11679.003018
   11883.0370  513508.310000  36435.486818  11755.993696
   11883.6520  513501.310000  36658.509364  11833.998062
   11883.9590  513452.310000  36755.510229  11869.002297
   11884.5740  513386.310000  36947.485835  11923.993166
   11884.8810  512944.310000  36991.504633  11932.004953
   11885.4960  512581.310000  37147.495466  11988.002429
   11886.1100  511986.310000  37246.496488  12019.001868
   11886.4190  512076.310000  37316.502568  12046.999887
   11887.0340  511312.310000  37406.503425  12083.000866
   11887.6480  511501.310000  37550.517002  12137.006170
   11887.9550  511283.310000  37595.481085  12156.996641
   11888.5720  511912.310000  37779.489171  12229.992554
   11888.8790  511775.310000  37836.516492  12249.004655
   11889.4930  512158.310000  38032.489317  12313.999384
   11890.1090  511637.310000  38176.494352  12358.993234
   11890.4170  511788.310000  38263.486353  12381.000533
   11891.0320  512366.310000  38502.486301  12453.999527
   11891.6480  511175.310000  38628.509957  12487.006252
   11891.9560  511411.310000  38744.514263  12520.010175
   11892.5700  511280.310000  38953.514202  12590.001808
   11892.8790  511236.310000  39040.514080  12606.000484
   11893.4950  510940.310000  39223.488870  12671.999216
   11894.1090  510896.310000  39429.515246  12754.009003
   11894.4190  511262.310000  39565.510243  12801.006304
   11895.0350  511043.310000  39765.485676  12898.001050
   11895.6490  510431.060000  39919.246835  12997.754144
   11896.2660  509984.340000  40101.511199  13101.032179
   11896.8810  510525.120000  40344.288795  13221.837822
   11897.4980  510706.440000  40552.561347  13336.157343
   11898.4220  510597.250000  40824.366406  13460.993314
   11899.0380  510373.590000  40981.632846  13521.350936
   11899.6550  510859.440000  41173.443936  13586.225979
   11900.5800  510870.810000  41402.768072  13634.628096
   11901.1950  510520.720000  41497.543157  13650.528304
   11902.1210  510390.090000  41623.891433  13666.974685
   11903.0450  510669.030000  41755.730091  13707.932633
   11903.6620  511690.470000  41896.064288  13750.399682
   11904.5870  511908.410000  41944.894551  13773.393478
   11905.5130  512358.870000  41986.254776  13807.905597
   11906.4380  512503.870000  41966.104729  13812.932102
   11907.3630  513453.370000  41973.489519  13837.485042
   11908.2910  513531.370000  41875.382233  13816.563389
   11909.2150  513982.910000  41775.749508  13798.142972
   11910.1430  514612.970000  41669.652396  13773.260996
   11911.0680  515268.530000  41515.057064  13724.879150
   11912.3030  516000.590000  41267.980507  13634.044119
   11913.2290  516409.220000  41058.361804  13549.687891
   11914.1560  517261.310000  40834.290507  13465.881391
   11915.3920  518362.940000  40526.725821  13341.595730
   11916.3180  519633.090000  40346.674153  13281.817125
   11917.5560  520353.750000  39997.136688  13187.571971
   11918.7930  520963.940000  39699.072564  13136.831188
   11919.7190  521647.620000  39496.549057  13122.617950
   11920.9570  522662.840000  39280.514858  13114.921015
   11922.1930  524076.560000  39148.996132  13116.746604
   11923.4320  524526.810000  38995.979141  13103.082946
   11924.6690  524804.560000  38867.480596  13078.948156
   11925.9080  526714.810000  38905.485051  13108.334438
   11927.1460  530325.620000  39099.989375  13184.227058
   11928.3840  528418.940000  38940.989716  13135.643538
   11929.6230  530230.750000  39087.522138  13177.585119
   11930.8610  531039.120000  39176.563216  13201.041010
   11932.4110  532341.940000  39352.087666  13228.016298
   11933.6510  534541.310000  39605.144232  13284.514249
   11934.8910  535388.190000  39828.712531  13324.534999
   11936.4410  537274.620000  40203.753441  13401.067399
   11937.9920  537392.560000  40498.334574  13466.132796
   11939.2320  539424.000000  40882.410262  13571.702188
   11940.7840  540806.940000  41309.989924  13715.798690
   11942.3360  541722.370000  41734.104061  13877.414156
   11943.5770  542222.370000  42036.706213  14003.540550
   11945.1300  544196.870000  42552.817744  14201.208616
   11946.6840  547356.870000  43129.447603  14422.377636
   11948.2370  550644.440000  43714.563236  14642.061353
   11949.7910  551982.500000  44113.212594  14811.284299
   11951.3460  554371.060000  44551.340620  14980.004012
   11952.8990  555878.120000  44872.990308  15108.266760
   11954.7670  557805.750000  45210.157430  15262.026016
   11956.3220  558200.810000  45346.807274  15345.308194
   11957.8780  561441.440000  45671.956977  15494.118134
   11959.7450  563348.620000  45863.640399  15594.443345
   11961.3010  564794.250000  45960.829703  15633.288290
   11963.1710  566661.440000  46077.557890  15663.669995
   11964.7290  568717.120000  46182.741034  15696.553369
   11966.5980  570650.370000  46239.467597  15711.952216
   11968.4700  573149.060000  46332.692920  15771.883390
   11970.0270  574334.310000  46312.395580  15817.321680
   11971.9000  577146.060000  46391.644676  15939.293842
   11973.7710  579844.370000  46476.357384  16066.763188
   11975.6440  580758.120000  46386.633818  16119.768138
   11977.5190  582278.440000  46355.398261  16170.308510
   11979.3920  584640.250000  46379.646074  16204.333408
   11981.2670  586965.620000  46409.410405  16236.897066
   11983.1410  589152.500000  46436.698546  16258.974993
   11985.0170  591144.870000  46460.482579  16270.572601
   11987.2060  591725.750000  46364.786868  16217.700471
   11989.0830  594597.120000  46469.587528  16212.330050
   11991.2730  598902.060000  46705.927271  16246.509390
   11993.1510  602634.500000  46953.740717  16283.183318
   11995.3440  605217.440000  47130.049839  16276.360815
   11997.2250  607306.940000  47312.869004  16289.069996
   11999.4170  610145.870000  47610.249311  16347.321474
   12001.2990  612937.370000  47923.057741  16454.068322
   12003.4940  614243.440000  48212.452179  16572.361397
   12005.6880  618489.940000  48777.294432  16805.142261
   12007.8860  621064.000000  49243.685008  17010.454680
   12010.0830  622714.560000  49683.567451  17198.294874
   12012.2820  625096.620000  50191.928644  17423.628238
   12014.4810  628737.250000  50813.874780  17688.530636
   12016.6820  632285.370000  51432.271572  17963.911470
   12018.8810  636502.000000  52091.175602  18247.818893
   12021.0830  639613.120000  52628.589230  18480.248139
   12023.6020  642385.810000  53135.543495  18727.201140
   12025.8040  645228.000000  53548.979658  18937.663989
   12028.0080  649112.690000  53991.916342  19139.654564
   12030.5270  651580.870000  54294.368885  19305.161933
   12032.7330  654181.620000  54571.295405  19449.182130
   12035.2570  657057.870000  54832.774873  19595.738062
   12037.7800  659759.620000  55055.763673  19719.806891
   12039.9890  662300.870000  55269.208166  19834.382846
   12042.5140  666289.690000  55553.223652  19994.486208
   12045.0400  669792.000000  55801.749192  20118.126336
   12047.5660  673337.810000  56021.701935  20243.244849
   12050.0960  676530.120000  56209.229528  20355.903537
   12052.6250  679822.000000  56401.288230  20452.108845
   12055.1540  681628.370000  56495.816847  20475.818352
   12057.6880  683853.250000  56600.812930  20486.012738
   12060.2210  688443.690000  56917.367802  20582.753746
   12062.7540  693963.620000  57329.397549  20739.011464
   12065.2880  696270.060000  57481.985457  20816.805190
   12068.1420  701009.000000  57854.065385  21009.101020
   12070.6780  704096.440000  58088.652526  21126.925889
   12073.2180  708334.440000  58425.728834  21248.267339
   12076.0730  711214.940000  58702.287225  21316.100746
   12078.6150  715209.940000  59098.415997  21441.496259
   12081.4730  718511.500000  59448.994579  21537.373125
   12084.3350  721020.560000  59774.111719  21647.796107
   12086.8780  725177.120000  60246.768041  21808.742652
   12089.7420  728854.190000  60698.907423  21977.203208
   12092.6060  734229.810000  61315.524922  22243.171714
   12095.4740  737790.870000  61799.632044  22494.647915
   12098.3400  742073.560000  62359.334718  22785.682444
   12101.2090  744093.690000  62754.479023  23026.205901
   12104.0800  749343.310000  63426.149958  23343.256378
   12106.9520  754003.500000  64039.303362  23638.818440
   12109.8250  756176.190000  64464.997661  23869.910827
   12112.6970  759334.440000  64966.211571  24132.529756
   12115.8940  765431.120000  65725.910957  24512.657839
   12118.7710  769749.370000  66302.126352  24827.310283
   12121.6500  774364.190000  66884.837195  25125.475527
   12124.8500  777511.440000  67340.063572  25391.164464
   12127.7310  780519.250000  67739.766700  25620.361420
   12130.9360  785047.560000  68266.987346  25883.080739
   12133.8190  789351.370000  68738.782361  26110.343998
   12137.0270  791178.690000  68988.984448  26233.091448
   12140.2350  797763.560000  69623.786069  26468.389259
   12143.4450  801732.940000  70020.045119  26624.191567
   12146.3370  806559.810000  70458.793866  26771.499088
   12149.5510  808455.250000  70640.125158  26852.363095
   12152.7650  814170.120000  71145.874292  27047.707109
   12155.9810  817186.560000  71425.176298  27159.587544
   12159.2000  823191.560000  71934.999878  27385.994465
   12162.4210  826690.000000  72238.328876  27525.921918
   12165.6420  829837.000000  72541.172409  27677.366794
   12169.1890  833974.500000  72951.499239  27896.324069
   12172.4150  838868.500000  73440.309452  28138.793053
   12175.6430  844892.060000  74027.665360  28419.794151
   12178.8720  848215.060000  74419.515469  28625.310590
   12182.4260  853029.690000  74968.899444  28889.351108
   12185.6580  856833.750000  75452.770869  29111.911174
   12189.2180  860606.310000  75943.158993  29333.991189
   12192.4520  865555.440000  76566.024045  29652.576773
   12196.0160  870222.060000  77191.428453  29974.697840
   12199.5790  874137.250000  77757.297093  30266.318693
   12202.8220  878515.870000  78354.701419  30563.469003
   12206.3900  884418.060000  79112.656587  30929.158180
   12209.9610  887718.750000  79649.038909  31224.329102
   12213.5340  892534.000000  80308.993077  31584.051953
   12217.1070  896052.690000  80883.448986  31919.289611
   12220.6860  900566.940000  81519.356762  32271.022726
   12224.2630  904285.690000  82084.839399  32606.303847
   12227.8450  909222.000000  82741.830870  32976.104357
   12231.4270  912664.810000  83248.297887  33274.414983
   12235.0130  918672.060000  83990.291457  33641.247366
   12238.9270  922719.940000  84564.771287  33956.594098
   12242.5160  925730.250000  85026.747674  34212.449063
   12246.1080  932164.120000  85793.212382  34587.819884
   12250.0290  936023.500000  86336.252310  34851.737169
   12253.6250  939600.370000  86819.794818  35053.173328
   12257.5500  944338.750000  87411.770466  35311.099471
   12261.1520  948230.690000  87908.351938  35533.585389
   12265.0810  950671.120000  88286.320712  35724.533916
   12269.0160  956053.060000  88915.938628  36033.069485
   12272.6230  960483.560000  89423.978847  36295.086209
   12276.5610  965217.560000  89985.498242  36581.605303
   12280.5020  971739.060000  90717.593380  36943.680769
   12284.4450  975751.060000  91220.211733  37217.273407
   12288.3910  980282.620000  91779.220688  37521.339252
   12292.3380  982934.620000  92157.825999  37778.966549
   12296.2890  988856.250000  92853.963333  38166.118517
   12300.2430  993165.310000  93416.606154  38500.792501
   12304.1980  996972.870000  93934.671626  38808.944870
   12308.1580  1001210.000000  94512.353188  39155.666397
   12312.1190  1006247.600000  95192.432076  39532.856791
   12316.0840  1010588.800000  95809.075113  39895.594740
   12320.3800  1013907.400000  96369.220237  40245.848612
   12324.3490  1019605.600000  97118.915907  40654.639602
   12328.6520  1022596.300000  97685.102410  40993.944653
   12332.6270  1027387.600000  98377.738987  41404.743380
   12336.6040  1031189.300000  98995.963375  41770.095938
   12340.9150  1036771.500000  99810.644585  42242.944121
   12345.2290  1041117.300000  100489.851508  42644.318053
   12349.2150  1045569.600000  101184.551058  43018.204548
   12353.5360  1050806.400000  101957.712949  43452.598243
   12357.8590  1055070.600000  102653.471644  43837.545926
   12362.1870  1056745.500000  103094.617297  44122.959965
   12366.1830  1063152.900000  103959.375870  44588.938216
   12370.5150  1066537.600000  104545.647353  44947.439356
   12374.8510  1071498.000000  105287.420479  45366.459223
   12379.1890  1075362.000000  105894.638996  45721.970078
   12383.5320  1078403.400000  106426.424110  46028.022370
   12387.8760  1084577.300000  107251.721055  46470.602335
   12392.5600  1085946.800000  107606.441608  46718.657925
   12396.9110  1090976.600000  108294.734948  47098.263755
   12401.2650  1096805.100000  109100.532986  47534.386627
   12405.6210  1100495.100000  109663.813872  47870.021304
   12410.3170  1105293.600000  110344.719582  48272.226763
   12414.6820  1109113.600000  110930.004990  48624.898607
   12419.0490  1113766.100000  111606.850709  49025.101103
   12423.7550  1116885.300000  112130.134058  49379.803671
   12428.1290  1118168.800000  112471.024247  49658.065589
   12432.8420  1123768.900000  113258.340034  50135.809053
   12437.5600  1127105.500000  113840.246718  50532.112285
   12441.9420  1131024.600000  114451.622929  50928.914472
   12446.6660  1135361.300000  115154.442456  51400.212426
   12451.3950  1139406.400000  115851.790261  51851.030236
   12456.1250  1145307.000000  116706.706128  52382.402372
   12460.5220  1147677.300000  117216.123453  52754.281757
   12465.2610  1150583.900000  117797.003255  53149.671898
   12470.0030  1157166.100000  118752.474171  53730.616452
   12474.7480  1162208.900000  119599.384777  54266.044373
   12479.4980  1166540.100000  120328.736392  54739.965163
   12484.2500  1172628.900000  121265.751458  55290.473835
   12489.0070  1176485.100000  121967.125268  55756.430189
   12494.1070  1178017.900000  122475.077382  56098.947956
   12498.8710  1180242.300000  123022.594714  56494.005510
   12503.6400  1182566.100000  123575.587987  56867.569201
   12508.4110  1187315.400000  124372.994558  57363.606618
   12513.5270  1190130.300000  125010.042729  57797.225680
   12518.3070  1194893.600000  125828.443888  58322.299897
   12523.4320  1199326.500000  126596.444933  58815.929508
   12528.2200  1203323.900000  127303.999540  59270.103574
   12533.3520  1205651.900000  127903.963287  59695.748024
   12538.1460  1211930.300000  128854.473702  60286.925543
   12543.2880  1214530.300000  129426.570437  60699.666066
   12548.0900  1218572.800000  130137.113892  61176.890798
   12553.2390  1222960.800000  130923.094096  61718.608560
   12558.3930  1225282.300000  131455.651713  62099.879307
   12563.5510  1228116.300000  132061.775730  62552.694346
   12568.7130  1233036.800000  132890.349538  63108.997381
   12573.5360  1235872.900000  133474.413596  63553.819685
   12578.7070  1242176.400000  134481.047912  64219.177523
   12583.8810  1245958.500000  135185.024537  64693.989048
   12589.0610  1249072.100000  135826.622059  65193.373781
   12594.2440  1253587.100000  136616.728171  65766.270507
   12599.4320  1257499.900000  137371.347210  66310.696727
   12604.9720  1259008.000000  137879.537637  66742.663977
   12610.1680  1261498.600000  138465.148460  67230.119791
   12615.3690  1266244.800000  139315.333338  67823.120622
   12620.5740  1269183.500000  139989.869505  68332.565875
   12625.7840  1276466.800000  141144.082132  69090.609738
   12631.3480  1277125.500000  141592.771102  69506.163244
   12636.5660  1279031.800000  142169.877705  69974.190327
   12642.1370  1283288.500000  143062.586585  70590.777308
   12647.3640  1286799.800000  143809.806726  71141.897572
   12652.9450  1290691.500000  144648.462209  71746.487608
   12658.1840  1290232.900000  144962.635600  72087.612799
   12663.7740  1294505.600000  145842.332701  72718.252945
   12669.0200  1299321.000000  146738.647947  73323.481048
   12674.6200  1301415.900000  147383.363141  73840.163512
   12680.2280  1304257.300000  148090.568952  74411.368975
   12685.8370  1307404.100000  148839.247421  74965.068160
   12691.1020  1313770.500000  149921.605317  75700.375913
   12696.7220  1314143.500000  150360.298151  76115.110146
   12702.3490  1316122.900000  150982.584629  76640.418679
   12707.9790  1320407.900000  151842.376031  77289.234978
   12713.6130  1323643.400000  152626.592260  77892.530683
   12719.2550  1329409.300000  153644.422398  78618.409315
   12724.9010  1333159.800000  154453.671876  79266.761579
   12730.5510  1333903.900000  154921.445450  79717.623547
   12736.2080  1337296.400000  155677.762030  80332.039821
   12741.8680  1342259.400000  156632.546253  81057.946877
   12747.8890  1342677.000000  157092.948883  81514.438272
   12753.5620  1349142.100000  158223.752762  82328.380308
   12759.2370  1350310.600000  158755.124734  82848.879475
   12764.9190  1354727.800000  159651.901182  83536.839613
   12770.9620  1356676.400000  160301.299169  84130.390585
   12776.6540  1361730.600000  161326.081844  84903.385580
   12782.3510  1363871.300000  161962.443663  85461.944143
   12788.4100  1367580.400000  162831.402658  86167.073435
   12794.1190  1368346.100000  163359.789077  86673.671429
   12800.1890  1372248.400000  164282.719246  87406.813865
   12806.2660  1372425.000000  164744.127377  87913.451697
   12811.9890  1376554.300000  165667.003675  88650.597428
   12818.0770  1378073.000000  166285.372779  89235.248626
   12824.1700  1381131.400000  167108.332102  89918.463387
   12829.9100  1385082.100000  168053.720781  90656.151504
   12836.0160  1387888.500000  168814.724098  91303.425533
   12842.1270  1388724.300000  169391.200358  91877.193762
   12848.2440  1391623.600000  170203.095267  92573.433203
   12854.3660  1392066.500000  170735.506380  93130.199877
   12860.4950  1397098.900000  171798.478161  93962.517365
   12866.2690  1402075.800000  172844.981440  94793.366364
   12872.4080  1403114.100000  173433.007782  95365.740769
   12878.5550  1405045.000000  174130.428889  96010.571935
   12885.0690  1404981.500000  174603.452053  96560.969239

