# XDI/1.0
# Column.1: energy eV
# Column.2: i0
# Column.3: itrans
# Column.4: irefer
# Beamline.name: SSRL 2-3
# Beamline.notes: vert slits = 0.6mm
# Detector.I0: N2 15cm
# Detector.I1: Ar 30cm
# Detector.I2: Ar 15cm
# Element.edge: K
# Element.symbol: As
# Mono.d_spacing: 3.13550
# Mono.name: Si(111)
# Mono.notes: unfocused, detuned 75%, clockwise at E=12000eV
# Sample.formula: As2S3
# Sample.name: As2S3 arsenious sulfide (orpiment)
# Sample.prep: powder on tape (5 layers)
# Sample.reference: GaAs powder
# Sample.temperature: 100K
# Scan.start_time: 1997-04-19 22:41:20
# ///
#    Note: mono d_spacing is nominal!
#     exafs to K16, GaAs in IR
#     413  E XMU XMUR I0
#-------------
#   energy   i0   itrans  irefer
   11634.8900  522870.310000  93227.473667  38013.990388
   11644.9080  520022.310000  93078.545736  38184.020421
   11654.9440  517087.310000  92891.462192  38341.986093
   11664.9980  514413.310000  92754.484191  38505.995152
   11675.0700  511248.310000  92509.505530  38641.000495
   11684.8620  509124.310000  92488.490588  38844.997759
   11694.9690  505740.310000  92195.499426  38949.000707
   11705.0930  504044.310000  92230.527892  39195.011493
   11714.9370  501165.310000  92042.461327  39349.981579
   11725.0950  498930.310000  91944.526897  39528.009690
   11734.9740  495964.310000  91748.484445  39674.992147
   11744.8670  493754.310000  91655.505673  39861.001715
   11755.0790  491079.310000  91479.476104  40004.987836
   11765.0090  488894.310000  91390.481431  40198.992421
   11774.9540  485957.310000  91147.473303  40322.990112
   11784.9180  483473.310000  90981.492955  40472.997029
   11794.8960  481202.310000  90882.529191  40654.014329
   11804.8950  479443.310000  90817.469276  40839.986389
   11814.9090  476319.310000  90484.489444  40910.994809
   11824.9400  473851.310000  90228.521548  40998.008014
   11834.9890  470819.310000  89772.472845  40970.987318
   11845.0570  469059.310000  89287.475046  40863.989423
   11845.3610  469058.310000  89266.483178  40858.990758
   11845.9730  468787.310000  89195.462440  40826.981282
   11846.5830  468326.310000  89092.512535  40786.004538
   11846.8890  468461.310000  89075.516999  40774.007836
   11847.4990  468537.310000  89070.459442  40776.981189
   11848.1100  468104.310000  88948.464877  40702.981923
   11848.4150  467149.310000  88745.518224  40626.007007
   11849.0270  467466.310000  88765.519614  40626.009191
   11849.6370  467496.310000  88730.479569  40608.989390
   11849.9420  466888.310000  88579.465482  40541.983393
   11850.5560  466471.310000  88435.503990  40464.001130
   11850.8600  466781.310000  88469.500107  40480.001460
   11851.4710  467166.310000  88452.467600  40462.985521
   11852.0830  466826.310000  88314.495960  40394.997833
   11852.3900  466679.310000  88249.525535  40353.011219
   11853.0000  466889.310000  88193.494873  40303.999452
   11853.6100  466822.310000  88075.525680  40241.012731
   11853.9170  466752.310000  87982.482444  40188.992171
   11854.5290  466733.310000  87841.497344  40103.997751
   11855.1400  466465.310000  87636.506785  39987.002158
   11855.4460  466608.310000  87589.503624  39956.000817
   11856.0580  466623.310000  87381.476031  39819.988725
   11856.3630  466260.310000  87208.524426  39728.010113
   11856.9760  466169.310000  86937.536917  39555.015262
   11857.5880  466616.310000  86730.474351  39411.987211
   11857.8940  466119.310000  86511.524078  39285.010402
   11858.5040  466198.310000  86109.530946  39027.015113
   11859.1180  465953.310000  85636.486456  38725.993296
   11859.4240  465797.310000  85368.534329  38564.014794
   11860.0350  465504.310000  84691.509579  38123.003088
   11860.6470  464971.310000  83845.490374  37600.994697
   11860.9550  464920.310000  83443.521565  37343.008846
   11861.5660  464828.310000  82319.507734  36619.002937
   11861.8720  464873.310000  81686.513668  36218.006665
   11862.4840  463841.310000  79824.501161  35063.001612
   11863.0980  463834.310000  77520.498483  33598.999775
   11863.4030  463930.310000  76344.527071  32864.010294
   11864.0170  463785.310000  72635.497687  30611.998844
   11864.6280  462820.310000  67380.514881  27597.005747
   11864.9350  462777.310000  64350.516888  25923.006764
   11865.5470  463230.310000  56853.475916  21966.989741
   11865.8540  462876.310000  53591.521220  20331.007208
   11866.4670  463104.310000  44704.506822  16050.007555
   11867.0780  463154.310000  36248.510163  12192.003445
   11867.3880  463320.310000  32765.483505  10647.995188
   11867.9990  463106.310000  27204.506479  8191.005311
   11868.6110  463049.310000  24675.492621  6949.999235
   11868.9190  462800.310000  24511.506618  6770.999178
   11869.5320  462780.310000  26090.504844  7008.000669
   11870.1450  462367.310000  29717.485754  7940.995288
   11870.4510  462044.310000  31808.507822  8520.003874
   11871.0640  461642.310000  36508.509501  9855.004236
   11871.3710  461640.310000  38293.494987  10372.001767
   11871.9850  461039.310000  42411.489763  11608.995950
   11872.5990  460963.310000  45391.481350  12546.998228
   11872.9050  460637.310000  46331.495914  12874.994085
   11873.5180  461051.310000  47555.494688  13364.999849
   11874.1330  461024.310000  47717.479380  13573.994252
   11874.4390  460983.310000  47576.495080  13610.000296
   11875.0530  461014.310000  47018.497294  13661.000353
   11875.3580  461259.310000  46739.488215  13688.997109
   11875.9750  461323.310000  46181.492399  13768.000847
   11876.5880  461052.310000  45823.520497  13898.007816
   11876.8940  460476.310000  45708.506128  13948.003926
   11877.5090  461063.310000  45790.487153  14162.992001
   11878.1230  460749.310000  45956.490905  14362.994880
   11878.4300  460710.310000  46073.477114  14455.998517
   11879.0440  460448.310000  46324.482537  14629.991029
   11879.3510  460786.310000  46494.517376  14718.002432
   11879.9660  460869.310000  46772.504070  14876.004974
   11880.5800  460341.310000  46974.513685  15002.010007
   11880.8870  460302.310000  47094.511675  15067.008249
   11881.5000  460623.310000  47336.496493  15170.998229
   11882.1160  460215.310000  47491.485635  15233.995022
   11882.4240  459579.310000  47515.478806  15245.990151
   11883.0370  459504.310000  47683.495013  15296.993740
   11883.6520  459316.310000  47829.475957  15335.986129
   11883.9590  459106.310000  47883.491286  15347.994215
   11884.5740  458354.310000  47945.477873  15372.996368
   11884.8810  457902.310000  47963.478869  15379.998467
   11885.4960  458572.310000  48158.516126  15449.999781
   11886.1100  457999.310000  48223.510776  15488.002277
   11886.4190  457583.310000  48242.480279  15500.991142
   11887.0340  457929.310000  48406.486688  15562.992608
   11887.6480  458748.310000  48636.521284  15650.012496
   11887.9550  458372.310000  48650.484030  15656.994622
   11888.5720  458113.310000  48795.522435  15695.005728
   11888.8790  458307.310000  48888.487614  15726.999389
   11889.4930  458381.310000  49081.510336  15780.001213
   11890.1090  458161.310000  49243.497446  15814.991627
   11890.4170  457770.310000  49262.520161  15825.009238
   11891.0320  457765.310000  49459.523559  15874.001247
   11891.6480  457781.310000  49643.505733  15925.006044
   11891.9560  457587.310000  49722.508009  15958.996403
   11892.5700  457374.310000  49894.516889  16030.002374
   11892.8790  456879.310000  49917.481103  16045.994653
   11893.4950  457225.310000  50145.475405  16152.991894
   11894.1090  456789.310000  50285.524689  16243.003401
   11894.4190  456663.310000  50365.498131  16300.998763
   11895.0350  456703.310000  50553.489200  16417.994646
   11895.6490  456837.060000  50740.265395  16540.762430
   11896.2660  456653.340000  50890.514330  16636.042012
   11896.8810  456443.120000  51036.297336  16713.839554
   11897.4980  456399.440000  51195.538573  16780.145818
   11898.4220  456463.250000  51417.325773  16847.987155
   11899.0380  456622.590000  51559.640586  16879.353814
   11899.6550  456571.440000  51671.438542  16891.223759
   11900.5800  456797.810000  51841.752847  16920.617759
   11901.1950  457058.720000  51946.579478  16934.549307
   11902.1210  457438.090000  52073.883837  16977.968843
   11903.0450  457649.030000  52157.739575  17009.934918
   11903.6620  457528.470000  52159.071282  17015.405036
   11904.5870  458226.410000  52241.928840  17068.393279
   11905.5130  458227.870000  52207.261434  17077.906202
   11906.4380  458716.870000  52188.135448  17092.934291
   11907.3630  459105.370000  52137.515040  17104.485653
   11908.2910  459829.370000  52116.389962  17107.560253
   11909.2150  460511.910000  52027.775414  17079.155077
   11910.1430  460683.970000  51864.641488  17022.249398
   11911.0680  461051.530000  51709.050049  16963.887425
   11912.3030  461922.590000  51479.945442  16865.031275
   11913.2290  462850.220000  51348.385913  16803.706765
   11914.1560  463491.310000  51157.322328  16724.900155
   11915.3920  463831.940000  50842.737402  16631.596476
   11916.3180  464541.090000  50675.675133  16601.814806
   11917.5560  465187.750000  50443.106011  16588.556456
   11918.7930  466272.940000  50276.067609  16610.818016
   11919.7190  466795.620000  50142.528353  16630.602418
   11920.9570  467725.840000  50036.528680  16658.928389
   11922.1930  469002.560000  50008.011713  16690.742541
   11923.4320  469922.810000  49961.986545  16705.089729
   11924.6690  470655.560000  49952.448923  16729.933354
   11925.9080  471382.840000  49974.485622  16740.326811
   11927.1460  472491.620000  50087.977605  16793.216269
   11928.3840  473664.940000  50222.000823  16831.652550
   11929.6230  475377.750000  50433.505766  16882.570378
   11930.8610  476260.090000  50585.557597  16902.036414
   11932.4110  477234.970000  50826.098323  16940.021682
   11933.6510  479014.310000  51149.129399  17001.515238
   11934.8910  480452.220000  51484.705624  17065.532488
   11936.4410  481790.620000  51891.739795  17143.063332
   11937.9920  482799.530000  52253.324506  17240.124999
   11939.2320  483668.970000  52572.424143  17339.700976
   11940.7840  484539.940000  52989.027480  17501.802287
   11942.3360  484989.410000  53359.127787  17663.423908
   11943.5770  486493.370000  53784.712557  17834.544407
   11945.1300  489880.870000  54471.805585  18097.200162
   11946.6840  492365.910000  55034.439367  18315.380285
   11948.2370  493875.440000  55489.584676  18500.066740
   11949.7910  495824.470000  55927.207156  18680.271612
   11951.3460  497558.030000  56334.334203  18844.011913
   11952.8990  499126.120000  56662.964240  18985.258494
   11954.7670  500469.720000  56956.117187  19143.018834
   11956.3220  502343.840000  57233.811018  19292.314911
   11957.8780  504168.470000  57474.965943  19408.118892
   11959.7450  506652.620000  57763.645148  19519.453840
   11961.3010  508089.280000  57913.827916  19571.299467
   11963.1710  509809.440000  58058.551435  19603.674219
   11964.7290  512086.160000  58255.755366  19666.563159
   11966.5980  514041.340000  58388.484679  19736.973226
   11968.4700  515776.090000  58478.650400  19828.865651
   11970.0270  518475.310000  58690.413991  19987.326714
   11971.9000  520515.090000  58791.652409  20148.299222
   11973.7710  522664.340000  58905.381941  20309.778320
   11975.6440  524426.120000  58976.647470  20418.790094
   11977.5190  526195.440000  59052.371497  20502.292367
   11979.3920  528849.250000  59216.630296  20580.322886
   11981.2670  530343.620000  59254.405761  20615.889967
   11983.1410  532693.500000  59397.682583  20667.971094
   11985.0170  534382.870000  59474.495112  20684.581488
   11987.2060  535746.750000  59515.784797  20654.693218
   11989.0830  539296.120000  59842.601549  20721.334212
   11991.2730  543348.060000  60227.924631  20777.509113
   11993.1510  545283.500000  60433.757203  20779.186629
   11995.3440  547464.440000  60694.040265  20779.366721
   11997.2250  549598.940000  60989.871672  20834.073850
   11999.4170  551796.870000  61342.259239  20929.318802
   12001.2990  554919.370000  61825.062475  21091.072020
   12003.4940  557570.440000  62314.419093  21309.347903
   12005.6880  560397.940000  62885.281537  21552.140495
   12007.8860  562763.000000  63406.702934  21782.471361
   12010.0830  564847.560000  63939.536168  22022.284873
   12012.2820  566934.620000  64481.927351  22277.628941
   12014.4810  569731.250000  65106.849479  22565.512798
   12016.6820  573741.370000  65868.262189  22893.905044
   12018.8810  576417.000000  66432.165349  23148.809578
   12021.0830  578368.120000  66910.610153  23387.262856
   12023.6020  582233.810000  67575.541298  23706.211501
   12025.8040  585381.000000  68101.954780  23962.663159
   12028.0080  587369.690000  68417.895270  24132.643285
   12030.5270  590412.870000  68849.369795  24359.162737
   12032.7330  593957.620000  69321.282790  24572.181507
   12035.2570  597004.870000  69691.772613  24768.737439
   12037.7800  599061.620000  69943.758162  24922.810396
   12039.9890  602027.870000  70303.229734  25113.379198
   12042.5140  605733.690000  70704.232309  25293.499704
   12045.0400  609049.000000  71050.701246  25478.111837
   12047.5660  610858.810000  71226.707418  25598.246480
   12050.0960  613757.120000  71507.209720  25742.910784
   12052.6250  617364.000000  71884.294197  25889.119951
   12055.1540  618891.370000  72005.806713  25904.812560
   12057.6880  621539.250000  72275.851023  25971.039780
   12060.2210  627709.690000  72956.383955  26209.757956
   12062.7540  630088.620000  73215.450871  26336.043498
   12065.2880  634109.060000  73670.979661  26555.794131
   12068.1420  637920.000000  74105.065007  26762.104713
   12070.6780  639854.440000  74343.609155  26868.906154
   12073.2180  644334.440000  74892.736367  27046.264728
   12076.0730  646281.940000  75178.316743  27108.107373
   12078.6150  650893.940000  75791.390951  27304.477790
   12081.4730  653867.500000  76245.982955  27440.382206
   12084.3350  657049.560000  76753.151647  27611.806402
   12086.8780  660391.120000  77272.741867  27801.730461
   12089.7420  665108.190000  77996.871675  28082.194257
   12092.6060  668033.810000  78507.549020  28356.174051
   12095.4740  671052.870000  79076.673049  28675.667094
   12098.3400  673357.560000  79546.319028  28944.681715
   12101.2090  675377.690000  79997.475276  29221.188367
   12104.0800  680583.310000  80829.115364  29613.230543
   12106.9520  684134.500000  81496.293095  29928.809224
   12109.8250  687459.190000  82106.030575  30263.926775
   12112.6970  689296.440000  82544.160195  30535.508673
   12115.8940  695270.120000  83499.899806  31019.651777
   12118.7710  698075.370000  84030.100747  31325.299973
   12121.6500  702700.190000  84742.845904  31704.477868
   12124.8500  704953.440000  85200.027625  31990.150485
   12127.7310  708519.250000  85773.768288  32301.359814
   12130.9360  713323.560000  86476.017254  32637.091521
   12133.8190  717686.370000  87096.758126  32908.334799
   12137.0270  719385.690000  87400.992592  33045.091553
   12140.2350  725317.560000  88184.796489  33321.391321
   12143.4450  728543.940000  88631.997635  33489.171224
   12146.3370  732129.810000  89102.806679  33660.506437
   12149.5510  735635.250000  89581.104606  33848.351961
   12152.7650  740303.120000  90158.904943  34083.719080
   12155.9810  744022.560000  90653.210857  34282.604118
   12159.2000  746177.560000  90926.963737  34424.980837
   12162.4210  751421.000000  91604.287796  34715.906433
   12165.6420  753779.000000  91934.118898  34901.343410
   12169.1890  758901.500000  92650.466978  35235.313106
   12172.4150  762412.500000  93170.276374  35509.779869
   12175.6430  766932.060000  93797.689036  35833.801308
   12178.8720  771291.060000  94455.498860  36134.302143
   12182.4260  774244.690000  94974.929862  36382.364322
   12185.6580  778889.750000  95698.775985  36696.911942
   12189.2180  781991.310000  96263.153922  36992.989731
   12192.4520  786213.440000  96955.034360  37347.579655
   12196.0160  790583.060000  97691.418880  37728.694183
   12199.5790  793220.250000  98264.313618  38046.322322
   12202.8220  798912.870000  99170.728090  38472.480404
   12206.3900  802345.060000  99829.603213  38822.134653
   12209.9610  805420.750000  100458.108693  39169.356207
   12213.5340  811414.000000  101427.007795  39675.057066
   12217.1070  814039.690000  102013.394575  40036.267228
   12220.6860  818659.940000  102810.427629  40503.050163
   12224.2630  823339.690000  103608.861468  40958.315794
   12227.8450  827858.000000  104381.832499  41372.104199
   12231.4270  831771.810000  105092.313109  41759.419239
   12235.0130  836224.060000  105859.272226  42160.239777
   12238.9270  840102.940000  106558.745280  42552.581882
   12242.5160  844031.250000  107234.767524  42915.455108
   12246.1080  847708.120000  107864.237743  43230.829149
   12250.0290  851803.500000  108576.269033  43564.746920
   12253.6250  855371.370000  109197.779135  43813.168615
   12257.5500  858571.750000  109769.778830  44075.102455
   12261.1520  863400.690000  110538.279556  44421.557562
   12265.0810  867905.120000  111269.412469  44771.572694
   12269.0160  869477.060000  111616.953386  44994.072122
   12272.6230  875563.560000  112512.997421  45419.092105
   12276.5610  880849.560000  113350.507118  45825.612095
   12280.5020  884331.060000  113907.588765  46125.677693
   12284.4450  888552.060000  114626.181611  46503.260993
   12288.3910  892351.620000  115247.299246  46866.374080
   12292.3380  896098.620000  115891.855244  47259.976470
   12296.2890  898778.250000  116413.946229  47597.109809
   12300.2430  905841.310000  117495.511890  48160.752996
   12304.1980  909977.870000  118207.704002  48578.958308
   12308.1580  912567.000000  118767.346427  48916.663603
   12312.1190  917247.620000  119573.407146  49383.846091
   12316.0840  922436.810000  120491.098029  49889.605524
   12320.3800  926116.440000  121210.290104  50338.876533
   12324.3490  931010.620000  122090.879859  50822.627788
   12328.6520  934528.310000  122815.093661  51266.941062
   12332.6270  939281.560000  123689.734040  51757.739948
   12336.6040  942674.250000  124417.865442  52207.052069
   12340.9150  948294.500000  125414.607420  52788.929915
   12345.2290  951250.250000  126104.782940  53202.291673
   12349.2150  956177.560000  127029.536213  53707.197706
   12353.5360  960927.370000  127936.727921  54205.605662
   12357.8590  964604.690000  128702.478160  54649.549419
   12362.1870  967727.500000  129397.691177  55066.989742
   12366.1830  972574.810000  130279.350891  55551.926613
   12370.5150  976303.690000  131054.687222  56020.455219
   12374.8510  981452.060000  132005.444628  56551.468416
   12379.1890  985172.940000  132789.637001  57012.970773
   12383.5320  988738.370000  133489.357650  57406.001677
   12387.8760  995185.250000  134582.702794  57963.592662
   12392.5600  995394.690000  134855.432176  58210.650244
   12396.9110  1001504.700000  135915.701012  58777.254278
   12401.2650  1005567.100000  136683.487121  59213.374676
   12405.6210  1009052.100000  137362.807353  59632.018579
   12410.3170  1014434.600000  138368.676532  60201.206397
   12414.6820  1017428.600000  138978.986142  60589.889721
   12419.0490  1021484.200000  139756.824809  61070.097679
   12423.7550  1026584.300000  140711.170995  61643.818492
   12428.1290  1027844.800000  141098.956287  61966.031871
   12432.8420  1031185.900000  141800.306862  62444.794483
   12437.5600  1035933.500000  142727.216496  63035.101101
   12441.9420  1041773.600000  143798.630879  63676.916861
   12446.6660  1045550.300000  144582.405989  64204.187130
   12451.3950  1050263.400000  145541.791014  64828.029823
   12456.1250  1052899.000000  146204.684877  65308.388639
   12460.5220  1056455.300000  146954.134318  65800.295332
   12465.2610  1059829.900000  147739.073737  66342.704671
   12470.0030  1067082.100000  149071.371266  67109.565724
   12474.7480  1070735.900000  149889.363917  67674.033105
   12479.4980  1073959.100000  150672.738843  68188.968012
   12484.2500  1077072.900000  151431.649221  68704.428796
   12489.0070  1080524.100000  152245.215405  69229.479773
   12494.1070  1084167.900000  153098.125553  69792.967972
   12498.8710  1086946.300000  153824.521797  70272.966769
   12503.6400  1090279.100000  154638.478751  70807.519132
   12508.4110  1094251.400000  155516.021036  71368.618469
   12513.5270  1096534.300000  156174.012249  71836.215908
   12518.3070  1101335.600000  157195.445052  72483.300984
   12523.4320  1106164.500000  158237.474087  73128.941518
   12528.2200  1109056.900000  158945.010028  73653.097093
   12533.3520  1113634.900000  159964.934028  74291.736603
   12538.1460  1118731.300000  161016.614348  74940.993786
   12543.2880  1120775.300000  161642.637459  75405.691553
   12548.0900  1126470.800000  162743.092622  76108.879385
   12553.2390  1129249.800000  163511.086835  76664.610277
   12558.3930  1131321.300000  164108.619178  77128.867023
   12563.5510  1134205.300000  164869.707174  77684.659734
   12568.7130  1138675.800000  165843.286842  78359.968202
   12573.5360  1142797.900000  166734.350908  78971.784683
   12578.7070  1146545.400000  167640.985263  79607.148993
   12583.8810  1149409.500000  168386.109158  80185.027765
   12589.0610  1153139.100000  169275.599814  80827.362645
   12594.2440  1155562.100000  169967.827857  81385.316620
   12599.4320  1160205.900000  170984.475930  82117.756200
   12604.9720  1164296.000000  171953.465622  82800.631775
   12610.1680  1167037.600000  172728.129245  83401.112711
   12615.3690  1169607.800000  173473.310559  83999.106167
   12620.5740  1176339.500000  174841.837102  84900.550490
   12625.7840  1179261.800000  175635.166942  85519.654650
   12631.3480  1182775.500000  176520.686629  86200.129001
   12636.5660  1186115.800000  177424.863295  86862.179067
   12642.1370  1189017.500000  178291.636137  87519.805370
   12647.3640  1192129.800000  179111.718045  88136.851246
   12652.9450  1195202.500000  180023.411456  88808.468023
   12658.1840  1198792.900000  180940.710777  89491.648926
   12663.7740  1201062.600000  181709.442931  90092.303927
   12669.0200  1204296.000000  182577.628245  90751.467411
   12674.6200  1208951.900000  183716.363376  91545.165716
   12680.2280  1210717.300000  184369.569457  92122.367322
   12685.8370  1214403.100000  185345.186475  92864.037339
   12691.1020  1216604.500000  186030.578495  93436.359801
   12696.7220  1221247.500000  187189.253574  94266.092671
   12702.3490  1223873.900000  187980.537755  94914.390709
   12707.9790  1227483.900000  188965.364848  95675.230786
   12713.6130  1229662.400000  189677.628520  96307.552175
   12719.2550  1232803.300000  190567.404396  97038.398484
   12724.9010  1237761.800000  191738.607968  97877.728139
   12730.5510  1241380.900000  192720.445126  98648.622415
   12736.2080  1243567.400000  193462.842117  99310.078724
   12741.8680  1246955.400000  194407.637577  100075.988178
   12747.8890  1249367.000000  195211.834955  100783.374048
   12753.5620  1251752.100000  196002.718466  101475.361874
   12759.2370  1254883.600000  196892.146331  102225.892634
   12764.9190  1258566.800000  197881.999760  103046.886380
   12770.9620  1262262.400000  198878.273263  103862.379148
   12776.6540  1265078.600000  199772.163287  104627.427831
   12782.3510  1268886.300000  200816.562220  105461.005196
   12788.4100  1271805.400000  201750.491791  106240.123137
   12794.1190  1275521.100000  202759.810698  107066.675936
   12800.1890  1276713.400000  203440.666769  107748.789931
   12806.2660  1279853.000000  204413.010114  108564.384940
   12811.9890  1283255.300000  205415.001747  109360.594828
   12818.0770  1285460.000000  206211.411082  110101.273446
   12824.1700  1285655.400000  206752.392589  110708.498378
   12829.9100  1289725.100000  207843.703939  111572.150785
   12836.0160  1292667.500000  208830.765979  112402.445214
   12842.1270  1296260.300000  209885.198098  113271.195718
   12848.2440  1300566.600000  211066.087355  114218.433074
   12854.3660  1302066.500000  211807.511316  114953.200888
   12860.4950  1304307.900000  212641.539366  115721.545351
   12866.2690  1305841.800000  213373.930600  116433.334046
   12872.4080  1309225.100000  214432.009149  117344.741918
   12878.5550  1311274.000000  215239.521752  118120.626724
   12885.0690  1312508.500000  215960.489212  118851.993943

