# XDI/1.0
# Column.1: energy eV
# Column.2: i0
# Column.3: itrans
# Beamline.name: SSRL 4-3 (?)
# Detector.I0: N2 15cm
# Detector.I1: Ar 30cm
# Element.edge: K
# Element.symbol: Sr
# Mono.d_spacing: 1.92009
# Mono.name: Si(220)
# Mono.notes: (?) unfocussed, detuned 50%, clockwise at E=16800eV
# Sample.formula: SrCO3
# Sample.name: SrCO3 strontianite
# Sample.prep: powder mixed with B2O3 (1:10)
# Sample.reference: none
# Sample.temperature: 12K
# Scan.start_time: 1997-03-17 12:43:45
# ///
#    Note: mono d_spacing is nominal!
#     exafs to K15
#     331  E XMU  I0
#-------------
#   energy   i0   itrans
   15700.0430  37319.199000  43244.198806
   15709.9910  37087.199000  43053.199111
   15719.9540  36836.199000  42846.199165
   15729.9310  36600.199000  42637.198972
   15739.9190  35668.199000  41590.198956
   15749.9210  36302.199000  42411.199137
   15759.9350  36122.199000  42307.198848
   15769.9630  35855.199000  42063.199087
   15780.0020  35608.199000  41835.199159
   15790.0570  35466.199000  41737.198940
   15799.9580  35268.199000  41579.199064
   15810.0370  35038.199000  41377.198835
   15819.9650  34780.199000  41124.198955
   15830.0710  34656.199000  41063.199165
   15840.0230  34486.199000  40932.199003
   15849.9890  34234.199000  40676.199202
   15859.9680  33985.199000  40433.199055
   15869.9590  33793.199000  40276.199011
   15879.9640  33535.199000  40009.199038
   15889.9800  33404.199000  39921.199183
   15900.0110  33149.199000  39685.198858
   15910.0550  32955.199000  39493.199125
   15919.9410  32737.199000  39289.198959
   15930.0110  32549.199000  39122.199188
   15939.9250  32356.199000  38956.199119
   15950.0200  32124.199000  38719.199149
   15959.9590  31951.199000  38581.199086
   15970.0790  31662.199000  38272.199032
   15980.0450  31388.199000  38000.198912
   15990.0210  31276.199000  37918.199054
   16000.0120  31058.199000  37685.199136
   16010.0140  30882.199000  37528.199002
   16020.0300  30666.199000  37314.199142
   16030.0590  30437.199000  37074.198953
   16039.9290  30221.199000  36824.199044
   16049.9820  30028.199000  36631.198921
   16060.0490  29816.199000  36395.198857
   16069.9590  29587.199000  36072.199134
   16080.0510  29363.199000  35714.199170
   16089.9840  29117.199000  35050.198981
   16099.9310  28899.199000  30501.199005
   16110.0630  28722.199000  18321.199062
   16120.0350  28507.199000  23166.198889
   16121.2380  28478.199000  23324.199044
   16122.4430  28420.199000  23414.199036
   16123.8190  28381.199000  23493.199091
   16125.0240  28329.199000  23494.198998
   16126.2290  28277.199000  23479.199015
   16127.4350  28252.199000  23471.199005
   16128.8130  28185.199000  23367.198887
   16130.0190  28136.199000  23208.198919
   16131.2250  28072.199000  23027.199108
   16132.4310  27917.199000  22742.198887
   16133.8090  27884.199000  22537.199031
   16135.0160  27861.199000  22373.199106
   16136.2210  27820.199000  22177.199013
   16137.4290  27830.199000  22031.199021
   16138.8080  27796.199000  21798.199066
   16140.0160  27778.199000  21572.199044
   16141.2230  27774.199000  21373.199048
   16142.4310  27739.199000  21152.198947
   16143.8120  27689.199000  20951.199065
   16145.0200  27655.199000  20824.198902
   16146.2280  27574.199000  20694.198942
   16147.4360  27549.199000  20659.198967
   16148.8170  27490.199000  20626.198944
   16150.0240  27458.199000  20666.199099
   16151.2340  27421.199000  20707.199058
   16152.4430  27364.199000  20760.198984
   16153.8260  27297.199000  20836.198908
   16155.0340  27260.199000  20948.199005
   16155.7270  27233.193000  20989.188046
   16156.4180  27207.176000  21063.151977
   16157.1080  27187.146000  21131.091952
   16157.8000  27126.104000  21171.005945
   16158.4930  27060.049000  21214.895938
   16159.3560  27053.982000  21317.763948
   16160.0470  27016.904000  21359.605059
   16160.9130  26977.814000  21421.424038
   16161.7770  26939.713000  21470.218903
   16162.6420  26926.598000  21529.987942
   16163.5080  26878.471000  21561.734045
   16164.3720  26858.332000  21608.454916
   16165.2370  26831.182000  21651.151901
   16166.2750  26799.020000  21702.823986
   16167.1400  26812.844000  21768.472914
   16168.1790  26809.658000  21816.097958
   16169.2170  26786.459000  21847.697068
   16170.0840  26787.248000  21875.273027
   16171.1230  26766.025000  21885.825928
   16172.1600  26808.791000  21931.354081
   16173.3730  26813.543000  21906.855091
   16174.4120  26798.285000  21873.334078
   16175.4520  26801.014000  21834.788981
   16176.6650  26838.730000  21791.221028
   16177.7050  26896.436000  21789.626918
   16178.9170  26945.129000  21774.008088
   16180.1320  26954.809000  21719.365089
   16181.3450  27031.477000  21716.698957
   16182.5590  27129.135000  21761.007961
   16183.7720  27254.779000  21832.292954
   16185.1600  27399.412000  21925.555040
   16186.3740  27528.031000  22008.791004
   16187.7620  27664.641000  22106.004083
   16188.9770  27787.236000  22201.191055
   16190.3650  27873.820000  22256.355028
   16191.7550  27995.393000  22349.493999
   16193.1430  28099.953000  22416.608920
   16194.5320  28168.502000  22467.700923
   16195.9220  28254.037000  22529.768068
   16197.4850  28262.563000  22530.810920
   16198.8740  28341.074000  22577.827949
   16200.4380  28422.574000  22623.823961
   16202.0040  28460.063000  22656.792946
   16203.3940  28554.539000  22719.737900
   16204.9580  28624.002000  22780.659915
   16206.5240  28695.453000  22847.557027
   16208.0900  28783.895000  22961.429945
   16209.8290  28826.322000  23054.278906
   16211.3960  28973.736000  23221.104095
   16212.9610  29099.141000  23375.903921
   16214.7030  29166.533000  23527.680035
   16216.4440  29302.912000  23732.431887
   16218.1860  29332.279000  23852.160065
   16219.9270  29430.635000  24028.862901
   16221.6700  29524.979000  24186.542920
   16223.4130  29655.311000  24348.197022
   16225.1560  29742.629000  24461.828119
   16226.9000  29860.936000  24590.434059
   16228.8180  29945.232000  24672.015934
   16230.5630  30030.516000  24759.574054
   16232.4800  30149.785000  24854.107040
   16234.4010  30234.045000  24916.616926
   16236.3210  30365.293000  25012.102021
   16238.2420  30510.527000  25112.563069
   16240.1630  30616.750000  25179.999904
   16242.0840  30755.961000  25277.411962
   16244.1810  30864.160000  25338.801074
   16246.1040  30983.346000  25401.164116
   16248.2020  31103.521000  25464.503893
   16250.3000  31228.684000  25516.819971
   16252.2250  31380.834000  25592.111114
   16254.3230  31497.973000  25668.378982
   16256.4230  31625.100000  25779.621078
   16258.6980  31714.215000  25905.839927
   16260.8010  31860.316000  26084.035039
   16262.9020  32019.408000  26283.204919
   16265.1800  32153.486000  26443.349871
   16267.2820  32265.553000  26572.473006
   16269.5620  32437.605000  26704.569896
   16271.8410  32554.648000  26782.642885
   16274.1210  32744.680000  26912.690903
   16276.4000  32872.695000  27010.717021
   16278.6820  33022.703000  27115.717047
   16280.9650  33179.695000  27227.693056
   16283.4220  33270.680000  27315.645101
   16285.7050  33397.648000  27444.572035
   16288.1650  33632.605000  27677.476878
   16290.4500  33738.551000  27834.355029
   16292.9110  33907.488000  28042.211119
   16295.3730  34052.410000  28230.041106
   16297.8360  34180.316000  28404.847943
   16300.3000  34390.215000  28585.630922
   16302.7640  34539.102000  28764.389131
   16305.4040  34627.977000  28901.122903
   16307.8700  34844.836000  29105.832054
   16310.5140  35034.688000  29309.517904
   16312.9800  35198.523000  29463.178035
   16315.6240  35310.348000  29580.816069
   16318.2710  35466.160000  29705.428070
   16320.9180  35633.965000  29828.015999
   16323.5630  35797.754000  29926.579859
   16326.2120  35936.531000  30010.121099
   16329.0380  36067.293000  30053.636949
   16331.6870  36277.047000  30159.129115
   16334.5150  36402.789000  30264.596063
   16337.1650  36572.520000  30419.039105
   16339.9950  36780.234000  30620.456887
   16342.8270  36921.941000  30783.852142
   16345.6570  37090.633000  30977.222859
   16348.4900  37239.313000  31176.567916
   16351.3220  37410.980000  31371.891104
   16354.3330  37611.641000  31575.188039
   16357.1690  37762.285000  31772.461156
   16360.0070  37946.918000  31984.711033
   16363.0210  38041.535000  32117.936037
   16366.0360  38161.145000  32262.134995
   16369.0540  38348.742000  32445.312968
   16372.0710  38525.328000  32587.464997
   16375.0920  38707.898000  32736.591942
   16378.1110  38946.461000  32911.695078
   16381.1330  39093.008000  33028.772894
   16384.1560  39257.543000  33155.831846
   16387.3570  39401.066000  33320.863148
   16390.3830  39571.578000  33519.866848
   16393.5860  39758.082000  33746.852077
   16396.7910  39966.566000  33953.809084
   16399.9980  40112.043000  34139.742109
   16403.2070  40248.508000  34299.651880
   16406.4160  40469.961000  34533.538947
   16409.6270  40680.398000  34720.398068
   16412.8400  40765.828000  34820.238069
   16416.2300  40971.242000  34988.051097
   16419.4450  41112.648000  35094.840009
   16422.8400  41220.039000  35186.601875
   16426.0570  41515.418000  35405.343898
   16429.4550  41666.785000  35546.058875
   16432.8540  41827.141000  35704.750067
   16436.2540  41988.484000  35868.418120
   16439.6560  42192.816000  36076.062963
   16443.2360  42348.137000  36253.679862
   16446.6430  42479.445000  36406.272888
   16450.0490  42704.738000  36641.847965
   16453.6350  42804.023000  36782.390937
   16457.2230  42991.293000  36995.914100
   16460.6350  43052.551000  37113.409850
   16464.2270  43340.801000  37357.887141
   16467.8180  43495.035000  37520.336162
   16471.4120  43587.258000  37638.761861
   16475.0100  43683.469000  37765.160087
   16478.7870  43909.668000  37992.538821
   16482.3870  44095.855000  38180.891086
   16485.9880  44263.027000  38364.218819
   16489.7710  44420.191000  38538.522996
   16493.5570  44607.344000  38678.800883
   16497.1620  44672.480000  38751.058907
   16500.9490  44909.609000  38945.288832
   16504.7400  44987.723000  39043.496141
   16508.5330  45116.824000  39220.675918
   16512.3260  45199.914000  39337.836014
   16516.3010  45408.992000  39538.969181
   16520.1000  45560.059000  39685.082189
   16523.8980  45707.113000  39861.168175
   16527.8810  45914.156000  40049.226866
   16531.8650  46125.188000  40260.266040
   16535.6680  46221.207000  40381.277072
   16539.6560  46294.211000  40504.265959
   16543.6450  46543.207000  40698.230057
   16547.6390  46637.188000  40836.172056
   16551.6310  46766.156000  40993.090123
   16555.8090  46874.117000  41153.979795
   16559.8070  47009.063000  41320.847840
   16563.9860  47094.996000  41440.691034
   16567.9880  47333.918000  41652.512085
   16572.1760  47400.828000  41742.305166
   16576.3610  47527.727000  41911.073962
   16580.3710  47791.609000  42168.820201
   16584.5610  47990.484000  42339.542965
   16588.7560  48209.348000  42514.241936
   16592.9530  48221.195000  42583.918189
   16597.3340  48387.031000  42768.565990
   16601.5330  48537.859000  42964.191003
   16605.7360  48577.672000  43054.793049
   16610.1250  48684.473000  43218.367119
   16614.5140  48871.262000  43421.921817
   16618.7250  48944.039000  43539.449154
   16623.1190  49084.805000  43706.952975
   16627.5160  49199.559000  43823.434127
   16631.9160  49300.301000  43946.891191
   16636.3180  49439.027000  44083.320129
   16640.7250  49522.746000  44187.726927
   16645.3130  49691.449000  44357.108865
   16649.7230  49735.145000  44445.469180
   16654.3180  49957.824000  44631.804910
   16658.7320  50052.492000  44773.113077
   16663.3320  50106.148000  44844.397985
   16667.9360  49993.793000  44801.659795
   16672.3570  50249.426000  45091.897948
   16676.9650  50445.047000  45320.112820
   16681.7620  50562.656000  45460.301023
   16686.3750  50685.254000  45612.464806
   16690.9900  50659.836000  45655.604806
   16695.6090  50823.410000  45850.722900
   16700.4160  50922.969000  45980.816143
   16705.0410  50950.520000  46042.883200
   16709.8520  51096.055000  46168.925920
   16714.6660  51093.578000  46186.945082
   16719.2990  51237.094000  46346.940996
   16724.1190  51281.594000  46439.909978
   16728.9410  51345.082000  46508.859005
   16733.7680  51349.555000  46560.780999
   16738.5960  51427.020000  46676.679996
   16743.6130  51649.473000  46909.555008
   16748.4490  51609.914000  46954.402011
   16753.2850  51805.340000  47162.226999
   16758.3130  51884.758000  47287.031001
   16763.3420  51856.160000  47269.805014
   16768.1880  51984.551000  47414.558993
   16773.2230  51883.930000  47366.289008
   16778.2620  51661.301000  47171.991982
   16783.3050  51955.656000  47556.671997
   16788.3480  52093.996000  47692.327991
   16793.3960  52188.328000  47808.960991
   16798.6350  52245.648000  47915.566010
   16803.6890  52379.957000  48060.148018
   16808.7460  52321.250000  48047.707007
   16813.9940  52322.535000  48104.242015
   16819.0590  52305.805000  48146.753978
   16824.3130  52416.066000  48298.237987
   16829.5700  52452.313000  48350.703020
   16834.8320  52641.547000  48547.140982
   16840.0960  52763.770000  48674.555000
   16845.3630  52745.980000  48704.941004
   16850.6350  52657.180000  48675.309004
   16855.9100  52832.367000  48841.647988
   16861.3770  52769.543000  48812.965017
   16866.6580  52820.707000  48911.257997
   16872.1310  52850.855000  48972.523016
   16877.4200  52852.996000  49031.770005
   16882.9000  52716.121000  48976.987998
   16888.3850  52748.238000  49058.183986
   16893.6840  52768.340000  49103.355012
   16899.1740  52739.430000  49106.500010
   16904.6700  52768.508000  49165.624997
   16910.1700  52689.574000  49139.723002
   16915.8610  52734.629000  49210.796994
   16921.3670  52700.672000  49202.847994
   16926.8770  52673.703000  49202.871012
   16932.5800  52627.719000  49205.875009
   16938.0980  52551.727000  49192.852016
   16943.8090  52494.719000  49171.804997
   16949.5250  52570.703000  49281.730013
   16955.0550  52493.672000  49255.637004
   16960.7770  52558.633000  49338.515992
   16966.5040  52393.578000  49242.371025
   16972.2340  52432.512000  49318.202992
   16977.9690  52352.434000  49255.012002
   16983.7090  52181.344000  49135.797004
   16989.6430  52197.242000  49165.554978
   16995.3890  52380.125000  49387.289005
   17001.3320  52157.000000  49220.999996

