# XDI/1.0
# Column.1: energy eV
# Column.2: i0
# Column.3: itrans
# Column.4: irefer
# Beamline.name: SSRL 2-3
# Beamline.notes: vert slits = 0.6mm
# Detector.I0: N2 15cm
# Detector.I1: Ar 30cm
# Detector.I2: Ar 15cm
# Element.edge: K
# Element.symbol: As
# Mono.d_spacing: 3.13550
# Mono.name: Si(111)
# Mono.notes: unfocused, detuned 75%, clockwise at E=12000eV
# Sample.formula: As2O3
# Sample.name: As2O3 arsenious oxide
# Sample.prep: powder on tape (5 layers)
# Sample.reference: GaAs powder
# Sample.temperature: 10K
# Scan.start_time: 1997-04-19 19:47:10
# ///
#    Note: mono d_spacing is nominal!
#     exafs to K16, GaAs in IR
#     413  E XMU XMUR I0
#-------------
#   energy   i0   itrans  irefer
   11634.8900  534204.310000  60646.526880  24869.010466
   11644.9080  531959.310000  60682.478645  25024.991898
   11654.9440  529036.310000  60631.470196  25155.988221
   11664.9980  526839.310000  60657.518157  25302.008690
   11675.0700  523828.310000  60603.520046  25443.008190
   11684.8620  521136.310000  60562.484821  25573.993060
   11694.9690  517618.310000  60453.478412  25672.991306
   11705.0930  514905.310000  60404.525020  25800.011036
   11714.9370  513172.310000  60480.480445  25975.990672
   11725.0950  510393.310000  60424.498353  26106.998616
   11734.9740  507781.310000  60363.514797  26223.007198
   11744.8670  504786.310000  60283.485337  26338.993697
   11755.0790  502815.310000  60288.473069  26490.988690
   11765.0090  499899.310000  60195.505987  26602.002586
   11774.9540  497622.310000  60157.515202  26733.005837
   11784.9180  495462.310000  60092.514696  26853.006438
   11794.8960  492579.310000  59935.469983  26928.986814
   11804.8950  489238.310000  59670.497097  26962.998826
   11814.9090  486739.310000  59437.520311  26998.007906
   11824.9400  484981.310000  59164.479544  27004.989740
   11834.9890  482140.310000  58470.489343  26804.995550
   11845.0570  479484.310000  57088.527224  26258.012281
   11845.3610  479220.310000  56991.516820  26206.008828
   11845.9730  479029.310000  56858.503424  26152.000421
   11846.5830  479152.310000  56769.517720  26119.007914
   11846.8890  476738.310000  56432.527670  25960.013815
   11847.4990  479898.310000  56672.508106  26062.002934
   11848.1100  479135.310000  56441.519096  25957.008283
   11848.4150  479059.310000  56364.493377  25921.996921
   11849.0270  478832.310000  56180.484888  25837.994214
   11849.6370  478339.310000  55948.483746  25723.992950
   11849.9420  478384.310000  55870.493994  25687.996108
   11850.5560  477956.310000  55637.494008  25580.998419
   11850.8600  477914.310000  55527.503060  25525.002159
   11851.4710  477784.310000  55302.515533  25421.007429
   11852.0830  478292.310000  55104.482932  25325.993333
   11852.3900  478202.310000  55004.493705  25273.997126
   11853.0000  478314.310000  54740.512647  25134.006472
   11853.6100  477857.310000  54403.482768  24977.990904
   11853.9170  477827.310000  54228.488642  24890.994990
   11854.5290  478592.310000  53940.474131  24748.988207
   11855.1400  478195.310000  53516.512298  24547.004914
   11855.4460  477805.310000  53292.486141  24437.993900
   11856.0580  477501.310000  52787.525502  24180.011079
   11856.3630  477546.310000  52556.518821  24067.007989
   11856.9760  477896.310000  52009.520287  23793.008673
   11857.5880  477472.310000  51347.495842  23457.997199
   11857.8940  476870.310000  51027.493062  23297.996439
   11858.5040  476847.310000  50259.487487  22908.995152
   11859.1180  477527.310000  49481.524229  22511.010656
   11859.4240  476768.310000  48977.482399  22251.992377
   11860.0350  476565.310000  47878.510712  21684.004645
   11860.6470  476857.310000  46713.504837  21089.002702
   11860.9550  476947.310000  46179.502166  20814.001797
   11861.5660  476607.310000  44614.499289  20001.000601
   11861.8720  476122.310000  43775.520787  19569.009658
   11862.4840  476352.310000  41809.505899  18556.002609
   11863.0980  476008.310000  39483.517726  17331.007047
   11863.4030  475691.310000  38441.481943  16781.992482
   11864.0170  475129.310000  35398.484149  15179.992814
   11864.6280  474958.310000  31935.493232  13379.997017
   11864.9350  474831.310000  30120.487984  12450.994561
   11865.5470  474870.310000  25880.498597  10327.999810
   11865.8540  474324.310000  24080.497633  9457.999450
   11866.4670  474807.310000  19229.490392  7215.996217
   11867.0780  475192.310000  14490.504680  5169.999466
   11867.3880  474648.310000  12408.505065  4322.003768
   11867.9990  474551.310000  8320.503311  2746.001208
   11868.6110  474991.310000  5097.501456  1599.999808
   11868.9190  475262.310000  4142.501710  1275.000898
   11869.5320  475060.310000  2195.499898   648.000225
   11870.1450  474431.310000  1134.499795   324.999981
   11870.4510  474573.310000   856.500057   242.999986
   11871.0640  474406.310000   604.499853   169.999998
   11871.3710  473845.310000   591.499712   165.999902
   11871.9850  473379.310000   683.499736   190.999970
   11872.5990  473087.310000   885.499806   247.999874
   11872.9050  473418.310000  1002.499493   281.999882
   11873.5180  473173.310000  1311.500271   372.000057
   11874.1330  472427.310000  1676.499341   480.999953
   11874.4390  472443.310000  1855.499182   532.999795
   11875.0530  473700.310000  2340.500661   684.000154
   11875.3580  473161.310000  2586.499368   763.999890
   11875.9750  472944.310000  3156.499447   949.000118
   11876.5880  473369.310000  3675.498854  1117.999431
   11876.8940  473419.310000  3855.499175  1183.999941
   11877.5090  473243.310000  4193.499775  1298.000046
   11878.1230  472787.310000  4303.499916  1342.999608
   11878.4300  472853.310000  4271.500683  1336.999887
   11879.0440  472750.310000  4036.501548  1274.001027
   11879.3510  472821.310000  3900.499169  1231.999596
   11879.9660  472538.310000  3478.498806  1102.000124
   11880.5800  472270.310000  3058.499733   973.999501
   11880.8870  472350.310000  2890.501142   921.000125
   11881.5000  472421.310000  2649.500664   846.999812
   11882.1160  472088.310000  2566.499904   819.000213
   11882.4240  472026.310000  2574.500991   823.000662
   11883.0370  471876.310000  2673.501125   855.000604
   11883.6520  471423.310000  2828.499723   904.999795
   11883.9590  471154.310000  2908.500518   929.000188
   11884.5740  470578.310000  3080.501428   987.000617
   11884.8810  470890.310000  3142.498485  1006.999563
   11885.4960  470436.310000  3275.500177  1049.000266
   11886.1100  470335.310000  3393.500097  1089.000024
   11886.4190  470227.310000  3444.501585  1106.000346
   11887.0340  470849.310000  3577.499549  1150.999973
   11887.6480  470678.310000  3715.498545  1195.999057
   11887.9550  470375.310000  3776.500956  1216.000151
   11888.5720  470879.310000  3943.500652  1269.000800
   11888.8790  470831.310000  4015.500017  1292.000609
   11889.4930  470730.310000  4171.498567  1341.999062
   11890.1090  470485.310000  4318.498345  1388.999545
   11890.4170  470296.310000  4380.500305  1406.000210
   11891.0320  470531.310000  4566.502082  1468.000841
   11891.6480  470097.310000  4786.501247  1536.000125
   11891.9560  469800.310000  4910.499816  1573.999342
   11892.5700  469734.310000  5191.497738  1664.998524
   11892.8790  469836.310000  5306.499327  1705.000421
   11893.4950  469725.310000  5577.502397  1798.000254
   11894.1090  469014.310000  5777.501251  1865.000423
   11894.4190  469022.310000  5861.498787  1895.999873
   11895.0350  469254.310000  5979.499449  1940.999138
   11895.6490  469565.060000  6046.253730  1970.759225
   11896.2660  468814.340000  6063.515980  1984.039319
   11896.8810  468946.120000  6080.286880  1994.838070
   11897.4980  469299.440000  6097.562063  2003.154183
   11898.4220  469580.250000  6128.347946  2011.993880
   11899.0380  469184.590000  6142.637886  2016.348643
   11899.6550  469433.440000  6169.442768  2021.226531
   11900.5800  469703.810000  6217.745023  2032.619397
   11901.1950  469846.720000  6265.563409  2047.536808
   11902.1210  469866.090000  6348.888379  2074.972165
   11903.0450  469986.030000  6450.721409  2110.926543
   11903.6620  470395.470000  6515.062257  2132.399276
   11904.5870  470949.410000  6599.907795  2161.392475
   11905.5130  471197.870000  6669.261352  2186.902397
   11906.4380  471303.870000  6740.122132  2210.933988
   11907.3630  471841.370000  6810.495299  2238.486233
   11908.2910  472309.370000  6835.367361  2248.555963
   11909.2150  473098.910000  6785.754435  2230.144717
   11910.1430  473290.970000  6647.649662  2186.255707
   11911.0680  474249.530000  6442.048746  2116.882776
   11912.3030  475180.590000  6120.959843  2009.031814
   11913.2290  475785.220000  5887.376803  1932.699120
   11914.1560  476295.310000  5674.299167  1858.885400
   11915.3920  476964.940000  5476.734270  1793.593209
   11916.3180  478398.090000  5409.670635  1771.818128
   11917.5560  478838.750000  5375.120014  1766.564857
   11918.7930  479505.940000  5394.075826  1784.828411
   11919.7190  480056.620000  5405.538387  1793.613061
   11920.9570  480692.840000  5364.512364  1785.916055
   11922.1930  482813.560000  5260.986596  1758.738121
   11923.4320  483811.810000  5093.972657  1705.079963
   11924.6690  484510.560000  4915.469273  1646.943633
   11925.9080  485228.840000  4753.468750  1594.323670
   11927.1460  486289.620000  4650.981964  1558.225030
   11928.3840  488115.940000  4618.998744  1546.644831
   11929.6230  489514.750000  4626.522909  1547.583364
   11930.8610  490225.090000  4622.555326  1545.041318
   11932.4110  491842.970000  4593.096884  1529.020752
   11933.6510  493046.310000  4582.144430  1523.517955
   11934.8910  494348.220000  4613.700136  1528.535623
   11936.4410  495623.620000  4691.764830  1548.071260
   11937.9920  496701.530000  4751.338189  1566.127955
   11939.2320  497582.970000  4757.419106  1567.704295
   11940.7840  498686.940000  4705.003534  1550.797825
   11942.3360  499503.410000  4611.099929  1525.413354
   11943.5770  501100.370000  4545.703133  1502.546628
   11945.1300  504012.870000  4483.813013  1484.199847
   11946.6840  506950.910000  4468.430259  1482.371506
   11948.2370  507862.440000  4521.557995  1503.063898
   11949.7910  510596.470000  4663.189198  1554.274056
   11951.3460  511559.030000  4817.330731  1609.005014
   11952.8990  513740.120000  4950.979989  1656.255836
   11954.7670  514369.720000  5037.139223  1690.024974
   11956.3220  516456.840000  5096.804234  1714.315238
   11957.8780  519261.470000  5165.973433  1742.121376
   11959.7450  521274.620000  5276.658326  1780.451537
   11961.3010  523284.280000  5396.841488  1823.297861
   11963.1710  523954.440000  5495.539339  1853.663097
   11964.7290  526934.120000  5560.741881  1878.550617
   11966.5980  528014.370000  5594.452598  1887.955503
   11968.4700  530541.060000  5665.676777  1921.882845
   11970.0270  532978.310000  5743.402066  1955.325604
   11971.9000  535024.060000  5810.634179  1993.288361
   11973.7710  537748.370000  5858.377786  2020.772243
   11975.6440  539328.120000  5896.624937  2042.772886
   11977.5190  541041.440000  5955.385134  2066.296501
   11979.3920  543243.250000  6061.650931  2106.338630
   11981.2670  545353.620000  6220.426219  2165.898806
   11983.1410  547061.500000  6394.704510  2225.979910
   11985.0170  549097.870000  6554.492518  2280.577488
   11987.2060  550055.750000  6654.788274  2316.697399
   11989.0830  553634.120000  6718.594866  2330.335003
   11991.2730  557467.060000  6770.909472  2338.497003
   11993.1510  559344.500000  6812.727558  2343.171989
   11995.3440  561875.440000  6854.053221  2350.368650
   11997.2250  563295.940000  6834.888373  2339.083389
   11999.4170  566862.870000  6777.229720  2313.319307
   12001.2990  569678.370000  6688.080675  2286.076292
   12003.4940  572770.440000  6570.441359  2249.349376
   12005.6880  576128.940000  6449.305753  2212.142471
   12007.8860  577495.000000  6305.686115  2167.457419
   12010.0830  580022.560000  6190.562775  2135.288997
   12012.2820  581335.620000  6126.951079  2116.640685
   12014.4810  584684.250000  6157.851646  2136.514917
   12016.6820  588915.370000  6256.253285  2175.902431
   12018.8810  592444.000000  6364.167015  2216.814718
   12021.0830  594306.120000  6426.593015  2246.246363
   12023.6020  598600.810000  6507.516859  2286.192908
   12025.8040  601452.000000  6562.953509  2311.661966
   12028.0080  603090.690000  6579.900235  2322.651877
   12030.5270  606051.870000  6576.348003  2330.156835
   12032.7330  609969.620000  6583.306671  2336.184756
   12035.2570  613420.870000  6631.773566  2356.730494
   12037.7800  616159.620000  6698.750747  2386.796412
   12039.9890  618952.870000  6763.233681  2416.381398
   12042.5140  623210.690000  6845.227183  2450.489126
   12045.0400  625825.000000  6897.719014  2477.110548
   12047.5660  628037.810000  6943.724983  2497.253110
   12050.0960  630791.120000  7003.239149  2523.916288
   12052.6250  634589.000000  7101.262217  2562.100796
   12055.1540  636367.370000  7180.794434  2583.802167
   12057.6880  639421.250000  7256.825472  2608.020411
   12060.2210  644540.690000  7372.375353  2653.763854
   12062.7540  647596.620000  7461.429386  2682.024722
   12065.2880  652004.060000  7520.982559  2710.802696
   12068.1420  655650.000000  7487.051861  2712.099640
   12070.6780  658688.440000  7419.633376  2684.919231
   12073.2180  663269.440000  7420.714177  2686.258418
   12076.0730  665747.940000  7542.307204  2725.113641
   12078.6150  669383.940000  7751.402516  2797.490588
   12081.4730  671550.500000  7968.013527  2873.389139
   12084.3350  674771.560000  8158.123701  2940.801620
   12086.8780  678868.120000  8300.750081  2996.736556
   12089.7420  683588.190000  8409.875541  3035.191971
   12092.6060  687183.810000  8469.511315  3070.163480
   12095.4740  689107.870000  8453.662835  3073.659339
   12098.3400  693505.560000  8417.309640  3070.668398
   12101.2090  696267.690000  8345.472685  3055.200432
   12104.0800  700272.310000  8350.139737  3059.251486
   12106.9520  704175.500000  8412.314253  3094.821760
   12109.8250  707943.190000  8529.006218  3146.914190
   12112.6970  708305.440000  8648.193136  3203.522268
   12115.8940  715324.120000  8883.892048  3306.650868
   12118.7710  717378.370000  8993.098179  3356.299454
   12121.6500  723023.190000  9071.814474  3397.467144
   12124.8500  726009.440000  9054.039552  3402.154534
   12127.7310  730331.250000  9051.768911  3414.361131
   12130.9360  732982.560000  9075.013874  3430.089345
   12133.8190  738497.370000  9200.754952  3483.333511
   12137.0270  739878.690000  9343.007853  3537.098083
   12140.2350  746171.560000  9505.775364  3597.384476
   12143.4450  748786.940000  9501.042066  3594.187236
   12146.3370  753648.810000  9466.814668  3579.508821
   12149.5510  756785.250000  9408.104772  3559.353145
   12152.7650  760702.120000  9359.892907  3541.712789
   12155.9810  764420.560000  9232.197559  3490.596746
   12159.2000  769278.560000  9109.001866  3442.995718
   12162.4210  773317.000000  9131.318106  3459.916151
   12165.6420  775326.000000  9297.147067  3528.356868
   12169.1890  781036.500000  9572.475871  3639.315024
   12172.4150  784750.500000  9753.311154  3711.792572
   12175.6430  789572.060000  9903.657194  3778.790189
   12178.8720  793662.060000  10011.513228  3824.308450
   12182.4260  796948.690000  10163.880394  3890.346382
   12185.6580  800918.750000  10383.754382  3978.903609
   12189.2180  803869.310000  10611.132716  4074.980683
   12192.4520  809177.440000  10797.009801  4153.571330
   12196.0160  813695.060000  10908.405912  4205.687503
   12199.5790  816305.250000  10970.308169  4245.321130
   12202.8220  822093.870000  11050.720016  4288.475831
   12206.3900  825549.060000  11073.630952  4306.145947
   12209.9610  829065.750000  11072.056086  4318.338684
   12213.5340  833765.000000  11078.990733  4330.051294
   12217.1070  838933.690000  11121.427677  4369.280144
   12220.6860  841764.940000  11165.378738  4394.031780
   12224.2630  844995.690000  11181.834330  4416.302585
   12227.8450  850441.000000  11174.797712  4425.091421
   12231.4270  854556.810000  11163.270657  4434.400730
   12235.0130  858871.060000  11224.252129  4467.231234
   12238.9270  862419.940000  11352.730883  4527.574753
   12242.5160  866332.250000  11544.723532  4613.439137
   12246.1080  869826.120000  11787.225138  4717.827082
   12250.0290  874169.500000  12054.237921  4828.733378
   12253.6250  879697.370000  12275.752197  4918.156920
   12257.5500  880329.750000  12450.783507  4992.104444
   12261.1520  887563.690000  12725.314562  5108.567755
   12265.0810  891132.120000  12925.352585  5192.549446
   12269.0160  891996.060000  12990.907836  5230.055111
   12272.6230  900085.560000  13042.963924  5265.077817
   12276.5610  905224.560000  12989.522169  5249.616601
   12280.5020  907147.060000  12954.595316  5238.678521
   12284.4450  914429.060000  13075.181514  5297.262048
   12288.3910  918124.620000  13113.262636  5326.358695
   12292.3380  920718.620000  13045.855196  5307.977480
   12296.2890  924248.250000  13023.959562  5312.116824
   12300.2430  931080.310000  13115.576054  5368.776999
   12304.1980  936348.870000  13191.690600  5413.953657
   12308.1580  939338.000000  13277.320735  5464.651619
   12312.1190  943213.620000  13400.443311  5528.864110
   12316.0840  948148.810000  13551.096445  5600.604635
   12320.3800  952500.440000  13704.244042  5683.858804
   12324.3490  956069.620000  13887.896906  5778.632914
   12328.6520  960578.310000  14141.058403  5900.925537
   12332.6270  964938.560000  14369.737474  6016.741483
   12336.6040  968499.250000  14556.923297  6112.076746
   12340.9150  974339.500000  14643.606232  6162.926868
   12345.2290  978087.250000  14553.796374  6140.296180
   12349.2150  982327.560000  14537.504347  6147.187849
   12353.5360  986520.370000  14656.720596  6208.602150
   12357.8590  989317.690000  14848.435460  6304.529879
   12362.1870  994383.500000  15074.656362  6418.976923
   12366.1830  998645.810000  15256.401283  6505.950185
   12370.5150  1003837.700000  15469.643718  6611.439021
   12374.8510  1007907.100000  15631.393277  6695.446588
   12379.1890  1011497.900000  15697.643107  6734.970842
   12383.5320  1015840.400000  15726.411014  6758.018523
   12387.8760  1017960.200000  15751.681163  6790.582325
   12392.5600  1020932.700000  15856.474460  6853.672227
   12396.9110  1028392.700000  16079.760622  6950.276041
   12401.2650  1033008.100000  16290.552040  7059.398929
   12405.6210  1037983.100000  16459.861523  7143.045188
   12410.3170  1040532.600000  16510.672276  7189.206302
   12414.6820  1045517.600000  16581.993087  7226.890443
   12419.0490  1050866.100000  16647.814729  7277.090751
   12423.7550  1055431.300000  16759.156700  7339.813823
   12428.1290  1056819.800000  16853.991092  7398.049533
   12432.8420  1061491.900000  17048.353845  7504.815269
   12437.5600  1065849.500000  17259.201348  7620.091769
   12441.9420  1070974.600000  17503.578645  7751.895189
   12446.6660  1074139.300000  17722.445946  7869.209154
   12451.3950  1078889.400000  17854.837103  7958.052091
   12456.1250  1084105.000000  17951.721951  8021.406983
   12460.5220  1085612.300000  18033.108665  8073.279155
   12465.2610  1087495.900000  18180.016436  8164.677215
   12470.0030  1094969.100000  18387.432642  8276.593930
   12474.7480  1098995.900000  18515.351962  8361.027479
   12479.4980  1101446.100000  18606.783746  8424.983618
   12484.2500  1107625.900000  18735.725858  8504.460367
   12489.0070  1112558.100000  18862.168274  8576.452251
   12494.1070  1115409.900000  18964.109889  8648.961359
   12498.8710  1119437.300000  19028.567971  8700.991871
   12503.6400  1121024.100000  19061.544366  8734.548219
   12508.4110  1126531.400000  19214.008712  8821.613885
   12513.5270  1129580.300000  19293.001755  8885.208491
   12518.3070  1133879.600000  19415.492033  8957.320275
   12523.4320  1139515.500000  19627.476584  9074.940749
   12528.2200  1140981.900000  19789.994594  9173.097234
   12533.3520  1144475.900000  19958.998254  9276.760316
   12538.1460  1151030.300000  20136.533117  9373.953447
   12543.2880  1153278.300000  20278.553738  9465.656674
   12548.0900  1159143.800000  20515.094005  9600.883333
   12553.2390  1161386.800000  20744.146018  9728.631971
   12558.3930  1164814.300000  20948.686639  9851.893342
   12563.5510  1168993.300000  21125.740588  9961.674003
   12568.7130  1172282.800000  21307.310674  10076.977212
   12573.5360  1175823.900000  21488.402529  10180.810984
   12578.7070  1180827.400000  21672.987256  10300.152059
   12583.8810  1183848.500000  21802.068512  10384.011331
   12589.0610  1186785.100000  21929.666034  10473.392921
   12594.2440  1192662.100000  22083.774347  10573.294617
   12599.4320  1195396.900000  22100.396358  10610.717159
   12604.9720  1197738.000000  22140.512096  10659.653963
   12610.1680  1202006.600000  22284.148719  10771.115989
   12615.3690  1204783.800000  22442.273962  10872.090606
   12620.5740  1209107.500000  22628.920653  10991.589211
   12625.7840  1215213.800000  22852.083787  11130.610409
   12631.3480  1216910.500000  22991.729143  11220.139675
   12636.5660  1220914.800000  23155.901971  11334.197611
   12642.1370  1224988.500000  23368.588182  11472.779564
   12647.3640  1229082.800000  23612.765555  11622.870817
   12652.9450  1230548.500000  23835.457524  11764.486607
   12658.1840  1234458.900000  24080.659680  11925.621054
   12663.7740  1236942.600000  24274.367755  12047.274704
   12669.0200  1244373.000000  24490.592582  12184.452668
   12674.6200  1245106.900000  24590.315060  12258.144444
   12680.2280  1248757.300000  24747.542120  12374.354875
   12685.8370  1250424.100000  24869.273681  12456.082437
   12691.1020  1255735.500000  25030.516380  12578.330549
   12696.7220  1258225.500000  25123.274163  12649.103891
   12702.3490  1260212.900000  25250.550411  12760.400364
   12707.9790  1266332.900000  25491.307771  12909.202412
   12713.6130  1268146.400000  25601.593247  13007.534750
   12719.2550  1272018.300000  25717.382640  13101.387368
   12724.9010  1274450.800000  25829.664537  13196.747790
   12730.5510  1279239.900000  26023.457750  13332.629178
   12736.2080  1280012.400000  26151.774439  13423.038804
   12741.8680  1283872.400000  26395.594002  13586.966700
   12747.8890  1286538.000000  26660.902564  13764.405780
   12753.5620  1289608.100000  26891.752814  13932.377566
   12759.2370  1292434.600000  27071.080165  14056.855398
   12764.9190  1293832.800000  27239.939355  14184.865055
   12770.9620  1299540.400000  27532.274714  14381.376091
   12776.6540  1301798.600000  27694.147955  14513.424166
   12782.3510  1307025.300000  27913.517529  14673.984599
   12788.4100  1308313.400000  28083.384591  14798.060217
   12794.1190  1311084.100000  28283.783839  14938.668181
   12800.1890  1313293.400000  28452.678594  15069.785924
   12806.2660  1316124.000000  28596.071046  15182.420802
   12811.9890  1318067.300000  28728.991680  15297.586578
   12818.0770  1319080.000000  28867.396309  15411.258333
   12824.1700  1322006.400000  29062.330804  15553.462172
   12829.9100  1325403.100000  29258.757149  15703.174959
   12836.0160  1329328.500000  29447.711718  15842.416103
   12842.1270  1331660.300000  29629.153393  15999.170682
   12848.2440  1337188.600000  29908.108449  16177.445664
   12854.3660  1336798.500000  30052.560195  16305.232282
   12860.4950  1339946.900000  30257.535633  16462.549358
   12866.2690  1341084.800000  30404.028548  16578.389629
   12872.4080  1344173.100000  30594.991143  16742.729552
   12878.5550  1347593.000000  30817.487878  16902.602719
   12885.0690  1348697.500000  31018.493492  17063.996753

