# XDI/1.0
# Column.1: energy eV
# Column.2: i0
# Column.3: itrans
# Column.4: irefer
# Beamline.name: SSRL 4-1
# Detector.I0: N2 15cm
# Detector.I1: N2 30cm
# Detector.I2: Ar 15cm
# Element.edge: K
# Element.symbol: As
# Mono.d_spacing: 3.13550
# Mono.name: Si(111)
# Mono.notes: unfocused, detuned 40%,counter clockwise at E=12000eV
# Sample.formula: As2O3
# Sample.name: As2O3 arsenious oxide
# Sample.prep: powder, mixed 1:60 with B(OH)3 by wt
# Sample.reference: GaAs powder
# Sample.temperature: room temperature
# Scan.start_time: 1997-01-19 14:12:16
# ///
#    Note: mono d_spacing is nominal!
#     exafs to K15, GaAs in IR
#     320  E XMU XMUR I0
#-------------
#   energy   i0   itrans  irefer
   11649.9940  176879.340000  277850.251586  322181.936188
   11660.0050  177239.340000  279116.239074  324511.937412
   11669.9970  175898.340000  277701.255264  323741.939213
   11680.0060  176644.340000  279588.235287  326831.919967
   11689.9960  175214.340000  277999.252397  325863.937453
   11700.0050  174627.340000  277759.246204  326437.928102
   11709.9940  175255.340000  279432.230477  329315.907821
   11720.0020  174492.340000  278935.241017  329574.933487
   11730.0030  173769.340000  278476.252826  329894.955659
   11739.9950  173020.340000  277942.250429  330151.935741
   11749.9960  172410.340000  277640.256195  330658.933989
   11760.0000  172406.340000  278297.234815  332313.909417
   11769.9970  171875.340000  278078.249359  332942.947542
   11779.9990  171904.340000  278800.245461  334650.920209
   11789.9960  170792.340000  277613.242930  334103.936794
   11799.9980  170451.340000  277675.248531  335026.944554
   11810.0030  170728.340000  278738.241321  337047.927480
   11820.0020  169851.340000  277756.237049  336645.916089
   11829.9940  169460.340000  277464.255850  336945.945084
   11840.0030  167862.340000  274881.236949  334193.925163
   11850.0040  168064.340000  274337.248171  333174.934968
   11850.7620  167667.340000  273521.245065  332057.948489
   11851.5200  168021.340000  273907.236226  332411.910825
   11852.2780  168000.340000  273663.241045  331989.918739
   11853.0360  167039.340000  271858.239883  329635.913690
   11853.7820  168021.340000  273155.244613  330978.922515
   11854.5410  168047.340000  272901.254718  330422.958237
   11855.2990  168137.340000  272671.246823  329877.919607
   11856.0580  167862.340000  271757.232110  328407.901782
   11856.8150  167525.340000  270749.252061  326779.954840
   11857.5750  166590.340000  268677.249929  323846.923190
   11858.3340  166799.340000  268282.232595  322747.903215
   11859.0930  167235.340000  268084.235302  321698.908701
   11859.8530  166360.340000  265751.233458  317993.918579
   11860.6110  167274.340000  265920.241295  316882.936144
   11861.3570  167175.340000  264125.244527  312989.925066
   11862.1180  167429.340000  262734.235935  309230.919939
   11862.8770  167574.340000  260453.247704  303309.935969
   11863.6370  167424.340000  256499.251820  293255.941361
   11864.3960  166435.340000  250384.236920  278867.925838
   11865.1550  168126.340000  246367.252887  263897.940816
   11865.9030  167524.340000  235090.243222  238387.946550
   11866.6630  166689.340000  220189.236053  210679.940143
   11867.4230  166758.340000  202716.246059  182449.951770
   11868.1830  167431.340000  180633.245343  151099.945227
   11868.9430  166407.340000  156921.246993  122301.947679
   11869.7030  167057.340000  140829.241994  105105.951865
   11870.4510  166557.340000  126699.245781  92929.945445
   11871.2130  166157.340000  119422.242687  87884.949827
   11871.9730  166500.340000  120082.241210  89010.946047
   11872.7210  166752.340000  127026.244877  94998.947983
   11873.4820  166528.340000  138101.249083  104508.949109
   11874.2430  166677.340000  147942.243016  113473.944615
   11875.0040  166776.340000  156460.246751  121854.945172
   11875.7540  166569.340000  163690.246194  129611.951649
   11876.5150  166811.340000  169486.246719  136134.951370
   11877.2750  166206.340000  172875.245227  140768.952065
   11878.0250  165794.340000  174652.246599  144142.952754
   11878.7860  165885.340000  174586.246147  145654.949766
   11879.5480  165998.340000  173166.245255  145650.947442
   11880.3090  166387.340000  171220.245606  144959.952376
   11881.0600  166599.340000  169137.245372  143929.944999
   11881.8200  166145.340000  167288.245993  142815.951445
   11882.5820  165988.340000  166703.246042  142626.947378
   11883.3330  166163.340000  167714.245990  143601.946922
   11884.0950  166290.340000  169287.246702  144899.943111
   11884.8450  166099.340000  170752.246171  146100.954671
   11885.6070  166606.340000  172987.245134  148017.952078
   11886.3570  165221.340000  172899.245606  148048.945140
   11887.1200  165878.340000  174936.245846  149870.951144
   11887.8820  166891.340000  177502.245930  152145.950676
   11888.6340  166012.340000  178094.246153  152651.948401
   11889.3960  165819.340000  179355.245792  153668.956030
   11890.1460  166231.340000  181515.246446  155409.948203
   11890.9100  165266.340000  182187.246356  155879.953837
   11891.6730  165516.340000  183848.237496  157260.948988
   11892.4230  165459.340000  185294.246818  158516.943217
   11893.1880  165471.340000  186781.242826  159958.948048
   11893.9380  165225.340000  187568.242493  160939.954041
   11894.7010  165327.340000  188572.243367  162224.939473
   11895.4520  165274.340000  189068.249789  163201.944921
   11896.2160  165455.340000  189525.240226  164083.937261
   11896.9680  164581.340000  188663.237973  163723.939880
   11897.7310  165043.340000  189365.253084  164572.961376
   11898.4840  165077.340000  189580.245000  164825.953739
   11899.2480  165624.340000  190434.254036  165470.960113
   11900.0000  165650.340000  190747.236262  165546.940212
   11901.2820  165403.340000  191017.238109  165428.962962
   11902.5780  165352.330000  191618.196180  165763.940424
   11903.8960  165103.300000  191989.145891  166122.943648
   11905.2290  166290.250000  193990.066762  168038.942896
   11906.5740  165458.190000  193406.953142  167738.921929
   11907.9560  165632.120000  193730.803477  168204.900908
   11909.3520  165483.050000  193246.653941  167834.885658
   11910.7590  165203.940000  192088.462995  166742.867569
   11912.1910  166000.840000  191921.253252  166377.840357
   11913.6380  165746.720000  190370.036763  164763.834086
   11915.1070  164859.580000  188306.787509  162793.818226
   11916.5920  166643.440000  189658.510148  164075.787510
   11918.1010  166224.280000  188657.209282  163726.763278
   11919.6330  166165.110000  188127.877786  164036.724492
   11921.1800  165724.920000  187056.517797  163835.685093
   11922.7390  165918.730000  186427.139562  163835.649829
   11924.3230  167327.520000  187040.746602  164661.621500
   11925.9330  167370.300000  186101.313743  164003.574441
   11927.5550  166705.060000  184496.859790  162675.536478
   11929.1890  167901.810000  185302.386857  163296.475089
   11930.8510  168192.560000  185211.888609  162964.439349
   11932.5360  168424.280000  185104.374401  162441.388725
   11934.2330  169225.000000  185720.827801  162416.320829
   11935.9580  168627.700000  184998.246427  161112.285322
   11937.6950  169432.390000  185846.654999  161275.212201
   11939.4430  169638.060000  185938.043462  161070.155506
   11941.2190  169659.730000  185765.386191  160909.100594
   11943.0200  170476.390000  186404.732721  161718.034676
   11944.8330  170501.020000  186396.034729  162000.971011
   11946.6590  170424.640000  186510.326007  162351.900534
   11948.5110  170942.270000  187592.582553  163555.829546
   11950.3870  172872.860000  190446.813436  166323.761780
   11952.2780  172849.450000  191175.027813  167173.682077
   11954.1930  172246.030000  191120.221454  167404.604179
   11956.1100  173386.590000  192873.363469  169281.519641
   11958.0630  174530.140000  194654.511014  171265.425464
   11960.0310  175009.670000  195701.615537  172435.357919
   11962.0120  175275.200000  196511.707592  173124.261314
   11964.0190  175159.720000  196844.788663  173256.203383
   11966.0500  175343.220000  197447.832520  173651.099403
   11968.0950  175656.700000  198203.845142  174436.996003
   11970.1520  177417.170000  200610.827995  177082.894263
   11972.2360  177544.640000  201113.790599  178441.795114
   11974.3340  178901.080000  203019.742374  181191.707351
   11976.4560  179215.520000  203718.655843  182697.595784
   11978.5930  179597.940000  204625.562756  184040.489654
   11980.7540  180496.360000  206179.430469  185649.374498
   11982.9290  181634.750000  208025.257473  187420.265160
   11985.1300  181406.140000  208297.091463  187588.153131
   11987.3450  182901.520000  210439.892476  189217.049447
   11989.5850  183452.870000  211360.666735  189506.911332
   11991.8370  183455.220000  211549.413553  188995.783449
   11994.1040  184122.550000  212478.151906  189016.699541
   11996.3960  184959.870000  213554.844510  189116.567203
   11998.7150  186501.190000  215259.509191  189890.429650
   12001.0470  187908.480000  216699.160776  190774.296540
   12003.3930  188291.770000  216873.802237  190919.185865
   12005.7650  189637.030000  218079.413084  192261.029367
   12008.1490  190344.300000  218504.986884  193049.906338
   12010.5610  191475.550000  219472.540449  194264.770357
   12012.9850  192959.780000  220850.051980  195948.618314
   12015.4370  193149.000000  220864.570780  196484.473275
   12017.9000  193251.200000  220799.046724  196923.336273
   12020.3790  195783.410000  223564.529995  199847.204524
   12022.8830  197354.580000  225236.938773  201886.025777
   12025.4010  197554.750000  225396.361963  202623.901990
   12027.9450  198365.910000  226304.730365  203983.734024
   12030.5020  199056.050000  227060.100729  205134.578320
   12033.0870  200176.190000  228354.450381  206737.416510
   12035.6860  201214.310000  229702.744762  208327.245482
   12038.3100  202889.410000  231898.030716  210677.094249
   12040.9480  204111.500000  233604.289450  212623.916134
   12043.6010  203837.590000  233714.515037  213047.735156
   12046.2780  205742.660000  236327.762241  215727.590045
   12048.9710  206369.720000  237510.947564  217186.414426
   12051.6880  208276.750000  240197.097088  219883.223725
   12054.4210  209098.780000  241596.256637  221123.053978
   12057.1690  210855.800000  244037.374446  223003.874895
   12059.9400  210942.810000  244484.461337  223025.680514
   12062.7290  213077.800000  247236.546686  225417.513275
   12065.5430  212778.780000  247100.573632  225491.308384
   12068.3690  214597.750000  249401.599226  227898.128782
   12071.2110  215881.700000  251036.581732  229553.925745
   12074.0800  217358.640000  253000.561527  231130.747801
   12076.9770  218464.580000  254599.518809  232140.549753
   12079.8720  219274.500000  255915.437998  232866.344353
   12082.7960  221814.390000  259232.346706  235506.143716
   12085.7460  222607.280000  260536.207201  236374.928078
   12088.7120  223343.170000  261737.048347  237335.719680
   12091.6910  224935.030000  263892.864621  239439.521457
   12094.6960  226360.890000  265841.690751  241746.315691
   12097.7040  227437.720000  267331.468281  243829.107952
   12100.7500  228994.550000  269427.221597  246486.894107
   12103.8120  230590.370000  271630.923598  249240.657661
   12106.8890  232311.170000  274055.659603  252045.456201
   12109.9780  232478.970000  274623.335398  253189.226330
   12113.0960  233630.730000  276424.987708  255546.988807
   12116.2390  236665.500000  280412.617335  260061.773135
   12119.3870  237192.250000  281363.209091  261763.536487
   12122.5600  237460.000000  281935.800787  263075.301382
   12125.7460  240295.720000  285561.389790  267192.106989
   12128.9620  242847.440000  288797.897610  270799.836494
   12132.1920  244973.140000  291423.393983  273689.614879
   12135.4490  245883.830000  292606.905452  274915.373786
   12138.7210  246473.500000  293298.388805  275506.139321
   12142.0080  247128.160000  294007.820834  275890.883652
   12145.3090  249314.810000  296521.223241  277955.629574
   12148.6380  250965.450000  298368.613529  279479.364623
   12151.9800  251939.080000  299476.967748  280356.122822
   12155.3510  252347.690000  300007.315330  280746.876722
   12158.7370  255486.300000  303893.614499  284338.616020
   12162.1370  256500.870000  305411.930267  285894.335545
   12165.5530  258342.450000  308001.185005  288539.089908
   12168.9950  260124.020000  310595.436255  291256.842244
   12172.4530  263239.560000  314895.643074  295642.549667
   12175.9390  264891.090000  317474.836597  298491.307074
   12179.4410  265548.620000  318901.012853  300132.012668
   12182.9560  267290.120000  321698.142510  302913.737497
   12186.4990  269026.620000  324396.273175  305614.460271
   12190.0450  270508.120000  326754.366656  308153.179789
   12193.6320  272103.590000  329178.461339  310961.897744
   12197.2210  273263.060000  331010.507959  313219.631007
   12200.8380  275548.500000  334147.514835  316681.328904
   12204.4710  277177.940000  336465.521801  319335.055604
   12208.1160  277445.340000  337050.489907  320414.772580
   12211.7930  280438.780000  340921.466767  324779.466707
   12215.4830  281374.160000  342268.396334  326836.208471
   12219.1890  284570.560000  346381.281115  331654.905440
   12222.9230  285859.910000  348179.191600  334259.596341
   12226.6720  288434.280000  351560.023675  338312.275523
   12230.4380  288889.620000  352489.832350  339818.987943
   12234.2180  292267.970000  357015.674477  344726.706112
   12238.0250  291610.280000  356665.423506  344950.360229
   12241.8500  294164.590000  360323.212308  348946.055199
   12245.6890  297134.870000  364572.940839  353366.751425
   12249.5580  298915.160000  367404.671347  356135.454021
   12253.4430  299168.440000  368410.335560  356921.117954
   12257.3410  301979.690000  372507.012616  360759.825450
   12261.2570  303989.940000  375644.609438  363797.454380
   12265.2010  304357.190000  376675.238093  364970.146117
   12269.1580  308262.410000  382041.866498  370453.833400
   12273.1360  309795.590000  384427.414769  372989.508869
   12277.1260  310794.780000  386055.917509  374831.136912
   12281.1460  314707.970000  391261.419816  380159.826161
   12285.1820  313711.160000  390256.958438  379653.521002
   12289.2320  316243.310000  393676.413241  383519.162003
   12293.3130  320009.440000  398594.853143  388980.823450
   12297.3970  321934.560000  401201.259364  392190.478015
   12301.5080  323198.690000  402941.654448  394583.123253
   12305.6500  324623.810000  404937.042420  397216.790808
   12309.7950  327477.910000  408845.364408  401642.428888
   12313.9700  329613.970000  411871.695371  405253.068253
   12318.1580  331330.030000  414419.003649  408475.721042
   12322.3640  331604.090000  415261.257094  410003.381540
   12326.5860  334235.120000  419117.494640  414532.996690
   12330.8240  336447.160000  422520.729088  418656.666164
   12335.0920  337894.190000  425051.951015  421923.293745
   12339.3770  340386.190000  428913.096419  426536.908359
   12343.6890  344078.190000  434312.242445  432632.523458
   12348.0070  344373.160000  435408.398111  434286.179204
   12352.3530  348580.120000  441432.448297  440920.792445
   12356.7020  348263.090000  441430.548617  441917.423469
   12361.0800  351591.030000  446586.608513  447076.014310
   12365.4890  353484.940000  449757.649886  450251.650091
   12369.9020  354779.870000  452243.663281  453066.288332
   12374.3440  357475.780000  455956.637407  458014.918436
   12378.8030  358752.660000  458103.610203  460599.516506
   12383.2780  361446.530000  462035.542148  464907.136029
   12387.7700  362747.410000  464136.435874  467389.716720
   12392.2790  365600.250000  468224.332205  471956.363164
   12396.8160  367248.090000  470810.140594  475000.922541
   12401.3710  369677.910000  474458.006216  479145.537322
   12405.9430  371848.720000  477792.818722  483024.131883
   12410.5320  373826.530000  480935.596575  486758.723628
   12415.1390  376235.310000  484725.364656  491206.304729
   12419.7620  378829.090000  488757.107555  495998.922085
   12424.4150  381073.870000  492396.822325  500445.509574
   12429.0850  382709.620000  495334.468980  504205.064485
   12433.7720  383942.340000  497698.158115  507438.689658
   12438.4760  387850.090000  503580.811602  514315.247269
   12443.1970  389498.780000  506513.427187  518243.833779
   12447.9370  389639.500000  507487.993580  520269.399128
   12452.7050  394535.190000  514611.598176  528440.004132
   12457.4910  395226.840000  516198.137173  530971.574900
   12462.2810  397829.530000  520244.657931  535974.125695
   12467.1030  398966.160000  522320.143317  539054.706077
   12471.9400  402088.810000  526975.619476  544750.245570
   12476.8110  404473.440000  530652.071038  549379.820563
   12481.6830  405630.030000  532666.480414  552255.354475
   12486.5740  409358.620000  538126.893231  558606.954537
   12491.4960  411255.220000  541145.232634  562414.484524
   12496.4350  413905.780000  545186.622897  567321.058028
   12501.3790  413086.340000  544686.950458  567482.638991
   12506.3530  416018.910000  549254.231820  572883.171049
   12511.3450  419674.440000  554798.490614  579398.680422
   12516.3540  421030.970000  557324.744305  582820.246591
   12521.3960  423013.470000  560805.993184  587263.805806
   12526.4390  426276.970000  565963.166553  593465.349676
   12531.5040  428735.470000  570163.355686  598577.854170
   12536.5990  430705.940000  573714.498649  603071.433645
   12541.7110  433415.370000  578219.614418  608603.928395
   12546.8270  433801.840000  579668.761750  610964.514638
   12551.9750  436904.280000  584725.807485  617116.993239
   12557.1420  439955.690000  589755.896944  623321.587423
   12562.3270  440472.090000  591293.957373  625838.082538
   12567.5300  443450.500000  596146.941813  631908.568347
   12572.7510  445894.870000  600257.906331  637200.088386
   12577.9900  446171.250000  601373.885601  639397.634421
   12583.2600  450185.590000  607608.779423  647018.087437
   12588.5360  453838.940000  613291.760222  654170.635117
   12593.8300  454002.280000  614268.617373  656345.180312
   12599.1560  459031.590000  621859.467814  665585.650960
   12604.4860  459267.910000  622962.311456  667911.187399
   12609.8500  461874.220000  627335.134695  673778.696101
   12615.2170  463285.500000  630116.923308  677919.171473
   12620.6160  466153.750000  634949.656934  684135.655923
   12626.0210  466757.030000  636656.423758  687078.172463
   12631.4580  470048.250000  642069.112015  693994.676001
   12636.9140  472812.500000  646856.840875  700146.216526
   12642.3890  474233.720000  649804.520742  704350.647040
   12647.8670  476759.910000  654286.174110  710191.108587
   12653.3800  478181.090000  657247.730197  714423.604563
   12658.9100  480279.280000  661098.382751  719607.135560
   12664.4600  482553.470000  665233.916734  725084.538795
   12670.0270  485157.620000  669777.473310  731049.035722
   12675.6160  487303.750000  673671.999803  736350.564127
   12681.2220  489548.870000  677730.484589  741869.983600
   12686.8480  493550.000000  684151.011885  749958.514398
   12692.4790  495177.090000  687347.410240  754520.905943
   12698.1440  496455.190000  689943.857025  758563.419973
   12703.8250  499814.280000  695579.276257  765876.905787
   12709.5280  502236.340000  699841.587397  771733.270441
   12715.2500  501365.410000  699522.036277  772567.849905

