# XDI/1.0
# Column.1: energy eV
# Column.2: i0
# Column.3: itrans
# Column.4: irefer
# Beamline.name: SSRL 2-3
# Beamline.notes: vert slits = 0.6mm
# Detector.I0: N2 15cm
# Detector.I1: Ar 30cm
# Detector.I2: Ar 15cm
# Element.edge: K
# Element.symbol: As
# Mono.d_spacing: 3.13550
# Mono.name: Si(111)
# Mono.notes: unfocused, detuned 75%, clockwise at E=12000eV
# Sample.formula: As2O3
# Sample.name: As2O3 arsenious oxide
# Sample.prep: powder on tape (2 layers)
# Sample.reference: GaAs powder
# Sample.temperature: 100K
# Scan.start_time: 1997-04-19 23:43:03
# ///
#    Note: mono d_spacing is nominal!
#     exafs to K16, GaAs in IR
#     413  E XMU XMUR I0
#-------------
#   energy   i0   itrans  irefer
   11634.8900  514566.310000  94678.546175  38613.020158
   11644.9080  512506.310000  94627.489747  38817.994820
   11654.9440  509390.310000  94407.501967  38959.001126
   11664.9980  506967.310000  94279.476382  39142.988932
   11675.0700  504346.310000  94135.492605  39320.997162
   11684.8620  502218.310000  94072.513551  39517.005792
   11694.9690  499017.310000  93807.497594  39633.997970
   11705.0930  496569.310000  93691.462602  39814.985874
   11714.9370  494094.310000  93552.465746  39983.985438
   11725.0950  491077.310000  93329.530551  40117.011431
   11734.9740  489028.310000  93243.502840  40305.002044
   11744.8670  487163.310000  93201.461759  40519.984858
   11755.0790  484094.310000  92931.507480  40651.004357
   11765.0090  481295.310000  92705.521307  40787.009325
   11774.9540  478930.310000  92541.491085  40932.996420
   11784.9180  476638.310000  92403.508001  41097.004815
   11794.8960  474755.310000  92334.470605  41300.988507
   11804.8950  472346.310000  92117.544964  41427.019968
   11814.9090  469447.310000  91772.534699  41485.014539
   11824.9400  467238.310000  91492.538938  41566.016705
   11834.9890  464539.310000  91012.529450  41527.015166
   11845.0570  463154.310000  90369.541607  41353.017007
   11845.3610  462196.310000  90184.512834  41266.004039
   11845.9730  462114.310000  90125.512733  41258.006244
   11846.5830  462143.310000  90070.530693  41220.014935
   11846.8890  462241.310000  90083.504752  41232.000694
   11847.4990  461680.310000  89925.511880  41151.006325
   11848.1100  461046.310000  89747.528868  41077.013939
   11848.4150  461087.310000  89712.527356  41059.010716
   11849.0270  460918.310000  89624.509451  41010.003533
   11849.6370  460370.310000  89418.463470  40911.982359
   11849.9420  459927.310000  89322.503522  40869.001055
   11850.5560  460076.310000  89245.532825  40824.013197
   11850.8600  460439.310000  89276.478585  40838.989720
   11851.4710  459990.310000  89102.502816  40748.002661
   11852.0830  459687.310000  88934.531460  40653.014776
   11852.3900  460212.310000  88950.490327  40661.997198
   11853.0000  460112.310000  88842.542000  40597.017847
   11853.6100  459867.310000  88641.486359  40470.992841
   11853.9170  459880.310000  88540.516426  40443.007466
   11854.5290  460276.310000  88452.526385  40359.010691
   11855.1400  460129.310000  88203.492407  40219.994946
   11855.4460  459433.310000  87978.528927  40112.014193
   11856.0580  459136.310000  87696.512966  39942.005424
   11856.3630  459026.310000  87572.456824  39859.980624
   11856.9760  459036.310000  87274.499104  39665.001068
   11857.5880  458881.310000  86904.480721  39448.991886
   11857.8940  458717.310000  86736.530432  39333.014820
   11858.5040  459143.310000  86378.463833  39097.983140
   11859.1180  458693.310000  85841.520968  38776.008463
   11859.4240  458309.310000  85512.477889  38563.988690
   11860.0350  458757.310000  84965.503577  38180.000594
   11860.6470  458747.310000  84254.462534  37700.981764
   11860.9550  458446.310000  83835.469831  37426.985647
   11861.5660  457975.310000  82832.481604  36748.991179
   11861.8720  457763.310000  82230.498410  36335.999083
   11862.4840  457745.310000  80865.472266  35341.988668
   11863.0980  456895.310000  79066.501041  34016.999457
   11863.4030  456349.310000  78146.521628  33337.008524
   11864.0170  455898.310000  75672.497117  31432.999491
   11864.6280  456260.310000  72755.499806  29179.000859
   11864.9350  455972.310000  70774.522482  27743.009096
   11865.5470  455919.310000  66128.501539  24586.999856
   11865.8540  456346.310000  63889.496448  23176.989928
   11866.4670  456933.310000  57260.523966  19489.004803
   11867.0780  457064.310000  49623.479716  15870.992994
   11867.3880  456477.310000  45243.499145  14027.995262
   11867.9990  456899.310000  36502.510476  10699.008123
   11868.6110  457066.310000  28417.509271  7960.003813
   11868.9190  456934.310000  25721.510822  7102.001451
   11869.5320  456382.310000  20414.508670  5500.004208
   11870.1450  456504.310000  17615.499033  4693.000491
   11870.4510  456495.310000  17179.493362  4579.997380
   11871.0640  455497.310000  17942.493016  4816.997512
   11871.3710  455326.310000  18707.496516  5040.999252
   11871.9850  455138.310000  21235.500876  5780.998108
   11872.5990  455295.310000  23923.500046  6580.003264
   11872.9050  455027.310000  25245.487809  6983.997350
   11873.5180  454713.310000  27931.501347  7820.997723
   11874.1330  455038.310000  30526.513870  8677.006650
   11874.4390  455049.310000  31610.513998  9040.005535
   11875.0530  454813.310000  34127.483488  9934.991566
   11875.3580  454644.310000  35274.501893  10356.003263
   11875.9750  454752.310000  37499.511158  11196.003644
   11876.5880  454788.310000  39196.484354  11880.994920
   11876.8940  454475.310000  39687.512385  12097.001219
   11877.5090  454480.310000  40358.482285  12440.989057
   11878.1230  454657.310000  40246.497053  12508.994810
   11878.4300  454487.310000  39886.502858  12445.000705
   11879.0440  453865.310000  38737.513826  12153.005191
   11879.3510  453978.310000  38163.494662  11999.001303
   11879.9660  454368.310000  36787.500408  11619.005060
   11880.5800  454190.310000  35474.505914  11244.007221
   11880.8870  453849.310000  34984.504212  11106.996518
   11881.5000  453440.310000  34478.489615  10966.998644
   11882.1160  453617.310000  34537.507695  10993.002270
   11882.4240  453329.310000  34675.514887  11037.999448
   11883.0370  452408.310000  35201.514695  11197.999125
   11883.6520  452155.310000  35877.513237  11412.003351
   11883.9590  452172.310000  36222.494613  11518.993988
   11884.5740  451783.310000  36795.503942  11706.001538
   11884.8810  451123.310000  36963.491776  11759.997346
   11885.4960  451037.310000  37409.514234  11920.004788
   11886.1100  451151.310000  37841.515066  12067.003958
   11886.4190  451199.310000  38049.508649  12135.999137
   11887.0340  450823.310000  38505.515428  12299.006526
   11887.6480  450913.310000  39029.513008  12466.002061
   11887.9550  451261.310000  39282.517519  12550.011389
   11888.5720  451258.310000  39818.511809  12718.007785
   11888.8790  450931.310000  40036.519373  12795.007067
   11889.4930  450913.310000  40517.505032  12935.003726
   11890.1090  450976.310000  40997.488569  13078.998952
   11890.4170  450876.310000  41208.479351  13148.991250
   11891.0320  450758.310000  41760.515918  13311.007145
   11891.6480  451004.310000  42444.481147  13529.992610
   11891.9560  451084.310000  42820.512944  13652.003155
   11892.5700  450329.310000  43474.480689  13878.989018
   11892.8790  450298.310000  43757.510833  13975.003567
   11893.4950  450776.310000  44392.486394  14209.989878
   11894.1090  450325.310000  44766.506306  14379.006095
   11894.4190  450227.310000  44907.489667  14447.994104
   11895.0350  450024.310000  45078.508524  14559.003559
   11895.6490  450442.060000  45209.238436  14655.760350
   11896.2660  450572.340000  45261.493654  14711.031305
   11896.8810  449971.120000  45237.274448  14729.840511
   11897.4980  449960.440000  45287.572984  14758.152881
   11898.4220  450573.250000  45427.364281  14800.998740
   11899.0380  450333.590000  45455.626995  14785.346948
   11899.6550  450083.440000  45499.438617  14786.224759
   11900.5800  450326.810000  45685.755964  14818.620971
   11901.1950  450868.720000  45872.564298  14871.538384
   11902.1210  451058.090000  46112.872173  14948.966005
   11903.0450  451262.030000  46366.729647  15041.922988
   11903.6620  451694.470000  46529.057037  15097.391793
   11904.5870  452523.410000  46790.888631  15204.379276
   11905.5130  452968.870000  46990.262692  15294.899449
   11906.4380  452704.870000  47109.110541  15348.939935
   11907.3630  453076.370000  47252.506421  15418.494007
   11908.2910  453736.370000  47274.372760  15438.561089
   11909.2150  454113.910000  47101.745965  15381.139786
   11910.1430  454714.970000  46783.650009  15270.254459
   11911.0680  455001.530000  46325.046761  15106.887741
   11912.3030  456176.590000  45711.961046  14885.029753
   11913.2290  456719.220000  45283.367596  14727.696016
   11914.1560  457251.310000  44882.284046  14591.879163
   11915.3920  457737.940000  44537.736317  14484.597406
   11916.3180  458686.090000  44485.668286  14492.815970
   11917.5560  459714.750000  44534.100026  14566.555596
   11918.7930  459606.940000  44518.091003  14630.840238
   11919.7190  460819.620000  44566.554856  14704.619360
   11920.9570  461978.840000  44462.497861  14723.915685
   11922.1930  462916.560000  44184.976003  14665.735020
   11923.4320  463575.810000  43777.979136  14554.088220
   11924.6690  464452.560000  43401.474783  14442.950224
   11925.9080  465217.840000  43081.461157  14339.325087
   11927.1460  466801.620000  42972.972469  14310.225775
   11928.3840  467722.940000  42977.000997  14305.643533
   11929.6230  468855.750000  43046.509689  14314.573610
   11930.8610  470218.090000  43084.556212  14306.036890
   11932.4110  471502.970000  43077.094301  14253.014114
   11933.6510  472958.310000  43189.147356  14255.520641
   11934.8910  474375.220000  43405.693187  14284.536834
   11936.4410  475339.620000  43638.750913  14318.072321
   11937.9920  476555.530000  43821.354909  14353.133110
   11939.2320  477782.970000  43886.405031  14378.694922
   11940.7840  478169.940000  43735.983850  14355.787806
   11942.3360  478983.410000  43553.103434  14330.411568
   11943.5770  481058.370000  43560.710732  14356.554738
   11945.1300  483635.870000  43641.794858  14406.194517
   11946.6840  486511.910000  43936.410923  14531.364500
   11948.2370  487990.440000  44308.556859  14674.067430
   11949.7910  490104.470000  44872.205526  14888.283666
   11951.3460  491294.030000  45375.340091  15078.015981
   11952.8990  492546.120000  45775.000473  15243.270103
   11954.7670  494386.720000  46148.157913  15411.038601
   11956.3220  496417.840000  46472.790530  15560.302998
   11957.8780  498052.470000  46783.961113  15695.113673
   11959.7450  500092.620000  47249.653533  15860.445753
   11961.3010  500851.280000  47588.836704  15972.287842
   11963.1710  502585.440000  47959.535997  16085.667455
   11964.7290  505804.160000  48375.745341  16223.544621
   11966.5980  507863.340000  48675.479178  16349.959097
   11968.4700  509394.090000  48997.680517  16510.886655
   11970.0270  511178.310000  49305.393298  16691.330829
   11971.9000  513227.090000  49622.651740  16911.289519
   11973.7710  515640.340000  49945.354959  17113.754672
   11975.6440  518234.160000  50317.613583  17316.766369
   11977.5190  519872.470000  50630.366842  17464.295358
   11979.3920  522397.280000  51127.646137  17658.343147
   11981.2670  524426.620000  51661.432330  17855.891564
   11983.1410  526026.500000  52177.720409  18040.975577
   11985.0170  526476.870000  52506.469941  18145.569006
   11987.2060  528749.750000  52900.789204  18244.693261
   11989.0830  532048.120000  53307.601400  18339.330044
   11991.2730  536622.060000  53822.901113  18441.490560
   11993.1510  538930.500000  54113.712531  18483.170588
   11995.3440  540075.440000  54243.047824  18451.373894
   11997.2250  542971.940000  54435.888027  18477.091043
   11999.4170  545835.870000  54525.218868  18481.316931
   12001.2990  547769.370000  54463.096327  18475.090045
   12003.4940  550470.440000  54426.450498  18493.350926
   12005.6880  552744.940000  54328.321495  18509.140025
   12007.8860  554893.000000  54208.694048  18509.466471
   12010.0830  556792.560000  54106.576850  18517.287345
   12012.2820  559372.620000  54234.966254  18621.649105
   12014.4810  562678.250000  54558.852028  18795.509272
   12016.6820  567027.370000  55066.281298  19019.914734
   12018.8810  569715.000000  55423.142201  19194.796675
   12021.0830  572065.120000  55707.613826  19355.252527
   12023.6020  574972.810000  56044.541175  19549.207582
   12025.8040  577654.000000  56349.934241  19719.659327
   12028.0080  579041.690000  56490.895210  19804.644451
   12030.5270  583422.870000  56848.353517  19988.163191
   12032.7330  586032.620000  57083.291382  20118.171343
   12035.2570  589180.870000  57491.793525  20307.742480
   12037.7800  591257.620000  57811.737597  20468.801066
   12039.9890  594534.870000  58260.210739  20674.382402
   12042.5140  597795.690000  58719.216431  20875.475315
   12045.0400  600576.000000  59117.748639  21070.125723
   12047.5660  603499.810000  59532.699065  21267.237132
   12050.0960  606670.120000  59997.217353  21470.914036
   12052.6250  609204.000000  60438.250262  21629.090413
   12055.1540  610762.370000  60748.777813  21723.789790
   12057.6880  613385.250000  61175.831726  21854.026967
   12060.2210  619036.690000  61879.351392  22101.744542
   12062.7540  623512.620000  62433.438516  22322.028265
   12065.2880  626227.060000  62710.006047  22468.807656
   12068.1420  628758.000000  62866.060852  22570.109559
   12070.6780  632474.440000  63139.641719  22670.914621
   12073.2180  634739.440000  63412.727086  22755.265837
   12076.0730  638313.940000  64041.302789  22951.108392
   12078.6150  641501.940000  64679.429105  23156.492811
   12081.4730  644551.500000  65377.994486  23387.383869
   12084.3350  647860.560000  66012.128349  23599.805914
   12086.8780  651898.120000  66624.760788  23828.737066
   12089.7420  654900.190000  67083.884406  24019.183951
   12092.6060  658859.810000  67563.492167  24265.164944
   12095.4740  661429.870000  67800.662162  24440.655661
   12098.3400  664743.560000  68042.284461  24624.659073
   12101.2090  667840.690000  68288.450797  24796.181191
   12104.0800  672686.310000  68833.126164  25078.254448
   12106.9520  675638.500000  69278.330749  25317.837066
   12109.8250  679285.190000  69853.979356  25605.906668
   12112.6970  680930.440000  70277.181386  25851.513719
   12115.8940  688191.120000  71301.872550  26336.641699
   12118.7710  690168.370000  71655.118002  26561.305661
   12121.6500  695440.190000  72258.792275  26883.459580
   12124.8500  697597.440000  72478.009808  27070.146158
   12127.7310  701717.250000  72933.753666  27311.354872
   12130.9360  704185.560000  73281.991822  27498.083215
   12133.8190  709432.370000  73965.751715  27778.331419
   12137.0270  711279.690000  74303.995683  27929.096424
   12140.2350  717736.560000  75027.791156  28203.390286
   12143.4450  720377.940000  75189.003556  28232.175168
   12146.3370  723942.810000  75412.828331  28320.513410
   12149.5510  727706.250000  75640.092298  28406.351486
   12152.7650  731603.120000  75866.876632  28500.706634
   12155.9810  734190.560000  75903.182481  28537.591366
   12159.2000  738445.560000  76229.031600  28688.007614
   12162.4210  743058.000000  76856.350654  28959.928645
   12165.6420  744883.000000  77338.134032  29196.351682
   12169.1890  750868.500000  78336.491099  29624.322695
   12172.4150  754275.500000  79002.277873  29936.781829
   12175.6430  758316.060000  79718.626364  30276.779465
   12178.8720  762791.060000  80456.539261  30604.319333
   12182.4260  766171.690000  81177.919513  30921.359251
   12185.6580  771174.750000  82071.761236  31291.906993
   12189.2180  773814.310000  82696.140747  31607.983631
   12192.4520  778857.440000  83468.976615  31974.558038
   12196.0160  781939.060000  83985.386135  32258.681768
   12199.5790  785287.250000  84472.291928  32535.316940
   12202.8220  788650.870000  84915.676769  32769.461376
   12206.3900  792486.060000  85357.636303  33022.148919
   12209.9610  797373.750000  85890.095092  33320.353115
   12213.5340  801190.000000  86311.006053  33588.055827
   12217.1070  806060.690000  86859.427623  33925.279262
   12220.6860  810489.940000  87385.374514  34240.026630
   12224.2630  813400.690000  87702.801392  34485.292947
   12227.8450  817623.000000  88155.768842  34764.079317
   12231.4270  822220.810000  88675.264574  35058.401469
   12235.0130  825873.060000  89218.291598  35353.244889
   12238.9270  829248.940000  89860.763447  35695.588137
   12242.5160  832902.250000  90573.736629  36063.446439
   12246.1080  838014.120000  91489.201597  36481.816194
   12250.0290  842662.500000  92419.271412  36892.745100
   12253.6250  846053.370000  93127.772002  37173.165473
   12257.5500  850410.750000  94016.797965  37565.112779
   12261.1520  854495.690000  94823.328353  37907.574942
   12265.0810  857024.120000  95428.384237  38209.560642
   12269.0160  862335.060000  96183.891520  38569.048244
   12272.6230  867059.560000  96763.965822  38874.078696
   12276.5610  871287.560000  97253.509730  39126.612874
   12280.5020  875587.060000  97760.595524  39395.680846
   12284.4450  879674.060000  98302.204436  39673.273623
   12288.3910  884157.620000  98813.313718  39979.377150
   12292.3380  887067.620000  99107.905777  40202.999767
   12296.2890  891142.250000  99577.981095  40507.124281
   12300.2430  895960.310000  100143.595913  40832.789184
   12304.1980  899779.870000  100632.688927  41147.951497
   12308.1580  903997.000000  101234.341462  41495.659931
   12312.1190  907385.620000  101736.437151  41799.861228
   12316.0840  912778.810000  102531.142735  42248.623948
   12320.3800  916011.440000  103133.251261  42611.861508
   12324.3490  920222.620000  103883.867757  43031.621065
   12328.6520  924460.310000  104690.054047  43487.925228
   12332.6270  927450.560000  105349.720636  43888.735318
   12336.6040  931372.250000  106093.951478  44310.090881
   12340.9150  937520.500000  106990.561926  44796.908228
   12345.2290  940638.250000  107508.792424  45147.293535
   12349.2150  944335.560000  108140.528279  45498.195648
   12353.5360  949957.370000  109070.679722  45987.586892
   12357.8590  954069.690000  109850.430642  46426.527958
   12362.1870  957595.500000  110582.677625  46848.985535
   12366.1830  963779.810000  111555.347253  47337.928995
   12370.5150  966093.690000  112100.615095  47691.425226
   12374.8510  971472.060000  112941.446151  48156.470375
   12379.1890  974426.940000  113443.684769  48476.989611
   12383.5320  977925.370000  113981.409249  48798.016099
   12387.8760  982497.250000  114687.672778  49183.580826
   12392.5600  986117.690000  115301.416038  49535.644856
   12396.9110  991479.690000  116134.785860  49991.283670
   12401.2650  994508.120000  116696.583526  50328.411730
   12405.6210  999692.120000  117474.859804  50756.041318
   12410.3170  1003573.600000  118128.676465  51144.210989
   12414.6820  1007553.600000  118771.026606  51532.907974
   12419.0490  1011342.200000  119437.788622  51951.076465
   12423.7550  1014431.200000  120075.095190  52354.785165
   12428.1290  1019202.800000  120937.034252  52875.068457
   12432.8420  1024704.900000  121975.346651  53471.812595
   12437.5600  1027665.500000  122696.153690  53934.071578
   12441.9420  1032559.600000  123617.614517  54480.909023
   12446.6660  1037963.300000  124614.466936  55080.222126
   12451.3950  1040024.400000  125139.792622  55496.033704
   12456.1250  1043456.100000  125822.685220  55923.392084
   12460.5220  1047919.200000  126588.132181  56429.285075
   12465.2610  1049115.900000  126994.031396  56764.684947
   12470.0030  1056157.100000  128089.369837  57407.566899
   12474.7480  1059891.900000  128753.303926  57849.007715
   12479.4980  1062875.100000  129290.766760  58263.974764
   12484.2500  1066202.900000  129885.711870  58685.455795
   12489.0070  1070294.100000  130536.221743  59117.474026
   12494.1070  1073412.900000  131116.137671  59495.975854
   12498.8710  1077136.300000  131741.573141  59930.995441
   12503.6400  1082514.100000  132551.531288  60422.538251
   12508.4110  1086226.400000  133224.003752  60871.613546
   12513.5270  1088764.300000  133769.967240  61279.193375
   12518.3070  1094968.600000  134799.429469  61889.297570
   12523.4320  1097562.500000  135489.492466  62354.951959
   12528.2200  1101748.900000  136343.045784  62902.116092
   12533.3520  1103686.900000  136939.959993  63334.745559
   12538.1460  1108604.300000  137900.597239  63908.982055
   12543.2880  1111603.300000  138659.552551  64432.654790
   12548.0900  1115584.800000  139532.148611  64988.909399
   12553.2390  1118644.800000  140335.113702  65502.619332
   12558.3930  1123902.300000  141360.745952  66155.928259
   12563.5510  1126028.300000  141998.705534  66635.658128
   12568.7130  1132893.800000  143206.339412  67396.987642
   12573.5360  1135323.900000  143801.411888  67829.816092
   12578.7070  1140098.400000  144710.016454  68431.165269
   12583.8810  1142575.500000  145285.126859  68903.040329
   12589.0610  1145768.100000  145968.598641  69407.360487
   12594.2440  1149466.100000  146646.782133  69927.294528
   12599.4320  1152973.900000  147323.357732  70462.706456
   12604.9720  1154298.000000  147737.587997  70867.692025
   12610.1680  1159808.600000  148710.173959  71545.132224
   12615.3690  1162905.800000  149403.268776  72072.088827
   12620.5740  1167242.500000  150279.877938  72690.573161
   12625.7840  1171973.800000  151236.012748  73350.580226
   12631.3480  1173416.500000  151774.802249  73810.179677
   12636.5660  1178859.800000  152864.969455  74545.231780
   12642.1370  1181843.500000  153695.563659  75126.764980
   12647.3640  1184792.800000  154475.759249  75709.873856
   12652.9450  1189094.500000  155463.405899  76399.463362
   12658.1840  1192098.900000  156249.613339  76962.601879
   12663.7740  1194595.600000  156996.419138  77525.297081
   12669.0200  1197103.000000  157663.615923  78053.465758
   12674.6200  1199926.900000  158389.298521  78621.131921
   12680.2280  1204732.300000  159370.497346  79308.337638
   12685.8370  1204947.100000  159724.258567  79686.074339
   12691.1020  1211900.500000  160919.472259  80486.306756
   12696.7220  1213889.500000  161483.334609  80987.129425
   12702.3490  1217852.900000  162307.497573  81650.371492
   12707.9790  1219878.900000  162896.311155  82147.200870
   12713.6130  1222304.400000  163519.656859  82682.560948
   12719.2550  1226957.300000  164441.460521  83374.428011
   12724.9010  1226637.800000  164722.659737  83762.750979
   12730.5510  1231361.900000  165716.429501  84486.610958
   12736.2080  1233603.400000  166361.770760  85074.041940
   12741.8680  1236862.400000  167202.579697  85736.962129
   12747.8890  1240438.000000  168135.940532  86475.429541
   12753.5620  1243513.100000  168970.779561  87138.385945
   12759.2370  1246494.600000  169812.106653  87831.874566
   12764.9190  1250313.800000  170762.011036  88555.895374
   12770.9620  1253203.400000  171622.324051  89259.403114
   12776.6540  1256168.600000  172463.147107  89969.414500
   12782.3510  1256950.300000  172982.540809  90487.993123
   12788.4100  1258698.400000  173684.328954  91139.039782
   12794.1190  1263811.100000  174782.809985  91943.680152
   12800.1890  1264138.400000  175260.609337  92452.755472
   12806.2660  1269887.000000  176419.062028  93365.416077
   12811.9890  1270993.300000  176961.996368  93879.589628
   12818.0770  1277102.000000  178207.344221  94815.237318
   12824.1700  1277394.400000  178639.294316  95301.443477
   12829.9100  1281730.100000  179621.720166  96074.159198
   12836.0160  1281057.500000  179919.618578  96504.369556
   12842.1270  1282354.300000  180491.189393  97090.192333
   12848.2440  1288238.600000  181727.104857  98009.443665
   12854.3660  1291082.500000  182544.557290  98732.235384
   12860.4950  1293147.900000  183288.562902  99424.559179
   12866.2690  1293659.800000  183766.978675  99940.362669
   12872.4080  1295529.100000  184483.026530  100601.750903
   12878.5550  1299368.000000  185500.443224  101430.574704
   12885.0690  1300533.500000  186174.581532  102113.040913

