# XDI/1.0
# Column.1: energy eV
# Column.2: i0
# Column.3: itrans
# Column.4: irefer
# Beamline.name: SSRL 2-3
# Beamline.notes: vert slits = 0.6mm
# Detector.I0: N2 15cm
# Detector.I1: Ar 30cm
# Detector.I2: Ar 15cm
# Element.edge: K
# Element.symbol: As
# Mono.d_spacing: 3.13550
# Mono.name: Si(111)
# Mono.notes: unfocused, detuned 75%, clockwise at E=12000eV
# Sample.formula: As2O5
# Sample.name: As2O5 arsenic (V) oxide
# Sample.prep: powder on tape (5 layers)
# Sample.reference: GaAs powder
# Sample.temperature: 10K
# Scan.start_time: 1997-04-19 18:40:39
# ///
#    Note: mono d_spacing is nominal!
#     exafs to K16, GaAs in IR
#     413  E XMU XMUR I0
#-------------
#   energy   i0   itrans  irefer
   11634.8900  543932.310000  96585.517630  39606.007408
   11644.9080  540983.310000  96414.482920  39751.991008
   11654.9440  538292.310000  96276.546194  39949.019940
   11664.9980  535810.310000  96210.471123  40158.988936
   11675.0700  533119.310000  96060.504223  40335.002698
   11684.8620  529939.310000  95849.522770  40476.011523
   11694.9690  525778.310000  95424.528734  40528.010811
   11705.0930  523603.310000  95385.479048  40749.992500
   11714.9370  521146.310000  95279.514323  40934.004671
   11725.0950  519144.310000  95263.515454  41169.006279
   11734.9740  516458.310000  95089.501482  41332.002091
   11744.8670  513467.310000  94884.500355  41474.001714
   11755.0790  510517.310000  94667.480375  41623.992548
   11765.0090  508283.310000  94572.523913  41822.011380
   11774.9540  505636.310000  94405.530375  41964.014606
   11784.9180  503787.310000  94355.463327  42166.985260
   11794.8960  500617.310000  94051.542542  42290.017145
   11804.8950  497609.310000  93760.461791  42385.984403
   11814.9090  494605.310000  93448.463421  42474.984005
   11824.9400  492330.310000  93185.474172  42560.987743
   11834.9890  490137.310000  92837.492883  42588.998823
   11845.0570  487426.310000  92141.470615  42396.987918
   11845.3610  486968.310000  92031.512824  42356.006842
   11845.9730  486923.310000  91999.453457  42340.976822
   11846.5830  487064.310000  91989.474947  42340.986620
   11846.8890  487064.310000  91975.493609  42325.996331
   11847.4990  486724.310000  91881.514783  42291.007053
   11848.1100  486476.310000  91799.532561  42251.016204
   11848.4150  486652.310000  91796.477515  42245.989474
   11849.0270  486750.310000  91785.495232  42248.999841
   11849.6370  486001.310000  91594.508533  42155.004974
   11849.9420  485253.310000  91449.512428  42081.004665
   11850.5560  485053.310000  91352.513950  42041.007140
   11850.8600  485064.310000  91320.516729  42020.007760
   11851.4710  484669.310000  91186.496674  41958.998838
   11852.0830  485075.310000  91171.482585  41930.993587
   11852.3900  485085.310000  91159.504820  41940.001967
   11853.0000  485372.310000  91149.520990  41911.009372
   11853.6100  485656.310000  91097.484617  41872.994341
   11853.9170  485275.310000  91004.538543  41816.018314
   11854.5290  485864.310000  90994.529324  41791.011787
   11855.1400  486041.310000  90928.512447  41746.007596
   11855.4460  486145.310000  90893.507226  41716.005119
   11856.0580  485460.310000  90648.513027  41568.008028
   11856.3630  485326.310000  90547.490396  41519.997092
   11856.9760  485300.310000  90384.509280  41396.005687
   11857.5880  485817.310000  90320.517358  41304.008273
   11857.8940  484805.310000  90059.484209  41172.991187
   11858.5040  484990.310000  89896.491261  41039.996327
   11859.1180  485338.310000  89735.476644  40882.990410
   11859.4240  485001.310000  89580.493693  40778.997918
   11860.0350  484436.310000  89218.459887  40497.982886
   11860.6470  484803.310000  88957.458608  40262.981044
   11860.9550  484491.310000  88794.480821  40120.992263
   11861.5660  484357.310000  88398.489125  39761.995857
   11861.8720  484142.310000  88169.481855  39546.990289
   11862.4840  484151.310000  87748.474873  39066.990662
   11863.0980  483448.310000  87118.512229  38413.006040
   11863.4030  483611.310000  86929.505237  38138.001722
   11864.0170  482711.310000  86148.519105  37156.007712
   11864.6280  481715.310000  85195.472811  35786.989172
   11864.9350  481893.310000  84823.509666  35082.005704
   11865.5470  481690.310000  83817.464876  33195.987068
   11865.8540  481785.310000  83390.517169  32361.006661
   11866.4670  482098.310000  82068.482890  29848.991567
   11867.0780  482398.310000  80472.470301  27238.982899
   11867.3880  482511.310000  79602.488977  26043.008929
   11867.9990  482462.310000  77253.467673  23603.990902
   11868.6110  482442.310000  74176.497066  21365.988790
   11868.9190  481992.310000  72792.516862  20607.006917
   11869.5320  482280.310000  68404.492413  18706.994681
   11870.1450  482240.310000  62804.489406  16884.002201
   11870.4510  481489.310000  59829.510720  16019.008199
   11871.0640  481116.310000  52461.525305  14023.002957
   11871.3710  481240.310000  49430.505326  13229.996986
   11871.9850  480971.310000  40683.500688  10950.998308
   11872.5990  480366.310000  32135.487809  8724.995555
   11872.9050  479774.310000  28376.513280  7736.000369
   11873.5180  480420.310000  21104.501661  5814.997561
   11874.1330  480311.310000  15808.495038  4407.997286
   11874.4390  479806.310000  14193.505511  3977.002925
   11875.0530  479544.310000  11715.494698  3335.999381
   11875.3580  480085.310000  11306.500404  3247.001053
   11875.9750  480326.310000  11592.504036  3398.002250
   11876.5880  479889.310000  13026.496470  3896.000340
   11876.8940  479781.310000  13822.495807  4162.997618
   11877.5090  480298.310000  16266.493685  4979.997505
   11878.1230  480145.310000  18878.501489  5851.001173
   11878.4300  479701.310000  20099.493975  6259.996584
   11879.0440  479270.310000  22740.506458  7139.999881
   11879.3510  479830.310000  23724.505957  7464.000426
   11879.9660  479602.310000  26177.499384  8290.997102
   11880.5800  479157.310000  28164.489782  8963.994630
   11880.8870  478968.310000  29004.512942  9252.006404
   11881.5000  478961.310000  30514.495155  9769.993705
   11882.1160  479126.310000  31626.496239  10151.000356
   11882.4240  478382.310000  31878.513490  10240.006194
   11883.0370  478106.310000  32475.505025  10439.003353
   11883.6520  478197.310000  32815.515259  10546.008317
   11883.9590  478185.310000  32903.509874  10566.000385
   11884.5740  477886.310000  33036.494984  10609.999007
   11884.8810  477247.310000  33026.485357  10603.995098
   11885.4960  476456.310000  33064.494386  10616.995110
   11886.1100  476702.310000  33143.486379  10650.993860
   11886.4190  476905.310000  33205.514438  10679.008153
   11887.0340  476257.310000  33262.487996  10704.993078
   11887.6480  476880.310000  33423.509746  10765.004372
   11887.9550  476956.310000  33481.494841  10784.995832
   11888.5720  477266.310000  33678.499509  10852.002628
   11888.8790  476710.310000  33736.488278  10876.994798
   11889.4930  476753.310000  33974.498100  10951.004501
   11890.1090  476696.310000  34281.492163  11039.995370
   11890.4170  476609.310000  34415.501872  11081.001870
   11891.0320  476351.310000  34795.484695  11197.993699
   11891.6480  476203.310000  35196.508414  11321.005398
   11891.9560  476289.310000  35412.485784  11390.998790
   11892.5700  476262.310000  35843.483307  11531.999932
   11892.8790  475679.310000  35966.498526  11575.003573
   11893.4950  475792.310000  36404.501533  11726.994840
   11894.1090  475580.310000  36779.505108  11876.002455
   11894.4190  475234.310000  36935.493294  11943.998882
   11895.0350  475189.310000  37273.487089  12095.001547
   11895.6490  475023.060000  37593.243881  12242.755205
   11896.2660  475060.340000  37890.515403  12378.038672
   11896.8810  475172.120000  38147.266214  12502.830970
   11897.4980  474836.440000  38330.556882  12588.156453
   11898.4220  474720.250000  38618.355061  12701.990115
   11899.0380  475292.590000  38895.656774  12782.353582
   11899.6550  475732.440000  39210.422649  12872.221216
   11900.5800  475398.810000  39764.758363  13023.625468
   11901.1950  475176.720000  40184.557376  13148.540672
   11902.1210  475700.090000  40962.892366  13392.978708
   11903.0450  475989.030000  41769.725540  13663.920349
   11903.6620  476511.470000  42313.060369  13841.395751
   11904.5870  476242.410000  42969.905102  14072.393766
   11905.5130  476562.870000  43682.241898  14330.894418
   11906.4380  477555.870000  44398.121426  14581.930983
   11907.3630  477884.370000  45053.505721  14821.484736
   11908.2910  477576.370000  45575.353834  15011.552695
   11909.2150  478209.910000  46137.763446  15196.145017
   11910.1430  479277.970000  46647.658926  15374.260919
   11911.0680  480408.530000  47051.034173  15492.884377
   11912.3030  481254.590000  47269.980072  15549.032581
   11913.2290  481163.220000  47212.351716  15517.688197
   11914.1560  482364.310000  47117.319848  15475.895098
   11915.3920  482522.940000  46711.737139  15328.601520
   11916.3180  483736.090000  46396.660720  15234.818354
   11917.5560  483878.750000  45771.121568  15074.557046
   11918.7930  484879.940000  45126.078376  14937.835862
   11919.7190  486452.620000  44682.525973  14843.610560
   11920.9570  487206.840000  43985.531738  14676.928275
   11922.1930  488095.560000  43376.993912  14513.746087
   11923.4320  489004.810000  42886.981821  14370.080842
   11924.6690  490546.560000  42534.486675  14279.946324
   11925.9080  491092.840000  42211.478795  14183.328044
   11927.1460  492596.620000  41989.963444  14115.219665
   11928.3840  493471.940000  41730.989158  14030.646854
   11929.6230  494726.750000  41484.530137  13931.585354
   11930.8610  496349.090000  41243.539802  13840.035146
   11932.4110  497774.970000  40851.114653  13671.031532
   11933.6510  499092.310000  40562.137947  13536.517975
   11934.8910  499974.220000  40260.689132  13395.536267
   11936.4410  500431.620000  39921.777062  13236.073804
   11937.9920  502298.530000  39804.326970  13171.120926
   11939.2320  504457.970000  39817.420842  13166.708048
   11940.7840  504678.940000  39709.023923  13142.805054
   11942.3360  504467.410000  39588.086977  13130.414268
   11943.5770  505566.370000  39637.685731  13171.538475
   11945.1300  509231.870000  39913.812946  13290.193775
   11946.6840  513007.910000  40184.416216  13404.363177
   11948.2370  514939.440000  40344.549358  13478.061662
   11949.7910  515940.470000  40464.190209  13546.272139
   11951.3460  516958.030000  40621.345973  13613.006436
   11952.8990  519791.120000  40952.998807  13757.264867
   11954.7670  520584.720000  41202.117117  13874.014657
   11956.3220  523485.840000  41587.805249  14039.320237
   11957.8780  525150.440000  41912.988792  14189.124259
   11959.7450  526373.620000  42230.650171  14304.444094
   11961.3010  527969.250000  42526.824578  14408.294438
   11963.1710  530699.440000  42912.529002  14527.666045
   11964.7290  532763.120000  43197.727842  14620.547431
   11966.5980  534700.370000  43471.455788  14726.955675
   11968.4700  536403.060000  43758.674003  14862.880397
   11970.0270  538912.310000  44103.399582  15041.316794
   11971.9000  540822.060000  44489.638320  15267.285176
   11973.7710  542904.370000  44985.363902  15530.769578
   11975.6440  544552.120000  45488.641555  15778.774624
   11977.5190  547510.440000  46150.395463  16054.296846
   11979.3920  550081.250000  46770.655853  16290.335121
   11981.2670  552274.620000  47330.429694  16510.894282
   11983.1410  552673.500000  47673.725176  16635.989841
   11985.0170  555519.870000  48169.516249  16802.578857
   11987.2060  555867.750000  48406.805156  16854.697583
   11989.0830  559946.120000  48884.607155  16974.336144
   11991.2730  564483.060000  49419.909745  17102.495256
   11993.1510  566736.500000  49732.740017  17150.176568
   11995.3440  569619.440000  50119.065707  17217.365365
   11997.2250  570497.940000  50295.899778  17225.081673
   11999.4170  573543.870000  50639.222733  17326.314736
   12001.2990  576746.370000  50969.101855  17440.090421
   12003.4940  579645.440000  51252.459457  17562.353515
   12005.6880  583036.940000  51558.317531  17717.140242
   12007.8860  584991.000000  51710.686511  17809.454403
   12010.0830  585875.560000  51778.572847  17877.293930
   12012.2820  587690.620000  51891.949004  17960.639209
   12014.4810  592633.250000  52241.841872  18145.502652
   12016.6820  595911.370000  52452.235105  18276.899645
   12018.8810  598967.000000  52651.172328  18391.810882
   12021.0830  602322.120000  52895.611936  18532.248659
   12023.6020  604903.810000  53055.495660  18651.180723
   12025.8040  607901.000000  53184.927565  18757.656951
   12028.0080  611941.690000  53369.904460  18877.655995
   12030.5270  614300.870000  53343.376831  18915.162033
   12032.7330  617274.620000  53409.306725  18978.182199
   12035.2570  620393.870000  53486.781603  19049.741854
   12037.7800  622223.620000  53471.753676  19094.790436
   12039.9890  626230.870000  53716.225409  19212.384652
   12042.5140  629465.690000  53994.238608  19363.490275
   12045.0400  632756.000000  54378.718963  19536.116521
   12047.5660  635740.810000  54796.753463  19739.267952
   12050.0960  637955.120000  55184.214106  19918.898133
   12052.6250  640708.000000  55584.245951  20071.096898
   12055.1540  642525.370000  55858.812533  20152.801326
   12057.6880  644829.250000  56134.834355  20228.015573
   12060.2210  651239.690000  56799.399975  20460.777522
   12062.7540  655505.620000  57279.447487  20654.038655
   12065.2880  658478.060000  57626.999689  20815.797684
   12068.1420  660872.000000  57918.055486  20971.097393
   12070.6780  664712.440000  58358.646205  21146.925449
   12073.2180  668844.440000  58842.742667  21307.273790
   12076.0730  671507.940000  59229.328921  21419.116982
   12078.6150  674425.940000  59614.382959  21528.483446
   12081.4730  678808.500000  60125.019658  21692.380186
   12084.3350  681604.560000  60482.112831  21813.797134
   12086.8780  685845.120000  60960.726542  21976.722601
   12089.7420  689813.190000  61438.877684  22184.188864
   12092.6060  691199.810000  61691.486709  22333.145999
   12095.4740  696282.870000  62283.653029  22628.654472
   12098.3400  698508.560000  62647.290578  22838.653591
   12101.2090  702101.690000  63117.448397  23095.187237
   12104.0800  705857.310000  63615.115461  23353.248736
   12106.9520  709866.500000  64116.319390  23609.824651
   12109.8250  712350.190000  64504.025350  23831.921711
   12112.6970  716274.440000  65019.185612  24106.518705
   12115.8940  719967.120000  65484.897550  24378.652317
   12118.7710  725443.370000  66089.111973  24692.303917
   12121.6500  729038.190000  66546.843783  24948.477978
   12124.8500  732216.440000  67001.040781  25212.155853
   12127.7310  735313.250000  67452.766602  25454.361381
   12130.9360  739451.560000  68022.992722  25726.082906
   12133.8190  743202.370000  68523.748349  25954.330555
   12137.0270  746143.690000  68919.020236  26112.104887
   12140.2350  750971.560000  69488.743925  26333.370667
   12143.4450  755047.940000  69963.049887  26497.191438
   12146.3370  757899.810000  70298.833122  26631.515298
   12149.5510  762586.250000  70785.106389  26816.356455
   12152.7650  765942.120000  71107.911646  26947.720347
   12155.9810  770045.560000  71457.200919  27091.599057
   12159.2000  773191.560000  71730.987116  27215.989003
   12162.4210  777920.000000  72163.306113  27408.914060
   12165.6420  781063.000000  72487.114309  27575.343235
   12169.1890  784456.500000  72821.491264  27762.320435
   12172.4150  790086.500000  73409.285505  28028.785429
   12175.6430  792902.060000  73816.678967  28259.797407
   12178.8720  798029.060000  74514.520529  28565.311950
   12182.4260  801612.690000  75083.855406  28833.334365
   12185.6580  805860.750000  75619.785419  29074.914590
   12189.2180  808873.310000  76012.158219  29285.991739
   12192.4520  812881.440000  76438.023997  29514.576757
   12196.0160  817392.060000  76918.379823  29780.676910
   12199.5790  820330.250000  77296.293360  30005.317114
   12202.8220  825928.870000  77940.729218  30312.478397
   12206.3900  829442.060000  78500.599200  30607.135189
   12209.9610  832789.750000  79124.076528  30927.343928
   12213.5340  837387.000000  79816.985224  31289.047908
   12217.1070  841025.690000  80317.393701  31595.269388
   12220.6860  845671.940000  80828.409514  31909.044831
   12224.2630  850304.690000  81291.848256  32204.308375
   12227.8450  854313.000000  81732.820195  32474.099631
   12231.4270  858498.810000  82297.299494  32774.415448
   12235.0130  861709.060000  82829.286148  33068.243014
   12238.9270  866512.940000  83485.757019  33423.586811
   12242.5160  869370.250000  83949.724262  33679.441240
   12246.1080  875376.120000  84719.232790  34043.827731
   12250.0290  880215.500000  85396.213709  34341.724199
   12253.6250  883236.370000  85823.756845  34527.159785
   12257.5500  888303.750000  86444.772802  34790.102845
   12261.1520  891860.690000  86914.331946  35016.579287
   12265.0810  897135.120000  87626.326724  35353.538494
   12269.0160  898167.060000  87932.905540  35536.053996
   12272.6230  905133.560000  88782.939867  35917.067952
   12276.5610  910302.560000  89487.506895  36279.611898
   12280.5020  913510.060000  90023.557704  36554.664156
   12284.4450  916401.060000  90594.192203  36853.268321
   12288.3910  923251.620000  91545.288709  37314.370047
   12292.3380  926589.620000  92101.826123  37646.966151
   12296.2890  931619.250000  92817.964235  38048.117213
   12300.2430  934653.310000  93333.553095  38346.768814
   12304.1980  939380.870000  94005.661514  38719.939865
   12308.1580  943708.000000  94594.354460  39066.666971
   12312.1190  946612.620000  95005.420637  39337.853524
   12316.0840  953321.810000  95757.076148  39746.593037
   12320.3800  956345.440000  96209.219194  40037.851201
   12324.3490  961331.620000  96870.925505  40427.644772
   12328.6520  965340.310000  97472.052123  40787.925420
   12332.6270  969507.560000  98075.763065  41157.755257
   12336.6040  974433.250000  98744.925976  41546.077808
   12340.9150  977632.500000  99272.622941  41882.933652
   12345.2290  981407.250000  99853.839423  42228.316834
   12349.2150  986917.560000  100592.480677  42633.175172
   12353.5360  989868.370000  101091.694841  42930.592114
   12357.8590  995473.690000  101896.408495  43363.518247
   12362.1870  999497.500000  102529.714352  43732.999424
   12366.1830  1004546.800000  103221.356402  44130.933370
   12370.5150  1007415.700000  103749.632596  44456.434866
   12374.8510  1013969.100000  104671.378141  44952.438577
   12379.1890  1016937.900000  105221.676792  45283.984740
   12383.5320  1022996.400000  106034.365763  45725.999221
   12387.8760  1026325.300000  106544.744387  46014.608953
   12392.5600  1029095.700000  107021.498455  46315.678599
   12396.9110  1035947.700000  107926.769712  46789.276353
   12401.2650  1040139.100000  108552.587523  47142.410598
   12405.6210  1044681.100000  109243.894886  47542.057976
   12410.3170  1050434.600000  110086.702765  48013.218686
   12414.6820  1053985.600000  110710.984980  48394.886958
   12419.0490  1058519.100000  111487.796314  48829.079892
   12423.7550  1062397.300000  112275.114333  49313.793913
   12428.1290  1067424.800000  113130.983977  49816.048824
   12432.8420  1070985.900000  113748.390138  50222.835068
   12437.5600  1073435.500000  114235.205800  50580.095618
   12441.9420  1078556.600000  114960.540656  51032.875605
   12446.6660  1083753.300000  115712.489202  51509.232996
   12451.3950  1086040.400000  116132.839097  51846.052595
   12456.1250  1091962.000000  116952.673991  52347.383604
   12460.5220  1096552.300000  117671.078740  52820.261833
   12465.2610  1097834.900000  118079.041857  53148.689426
   12470.0030  1104541.100000  119103.425033  53746.590561
   12474.7480  1108799.900000  119888.307468  54249.004295
   12479.4980  1111557.100000  120513.780104  54667.982233
   12484.2500  1117503.900000  121474.676406  55241.435589
   12489.0070  1120588.100000  122124.121363  55652.428510
   12494.1070  1125854.900000  123050.142778  56217.974525
   12498.8710  1128646.300000  123690.592920  56638.005151
   12503.6400  1133644.100000  124499.486355  57136.525618
   12508.4110  1134800.400000  124909.072852  57446.642210
   12513.5270  1136223.300000  125365.960862  57799.189140
   12518.3070  1142857.600000  126367.467550  58380.309776
   12523.4320  1145931.500000  126954.546696  58808.971651
   12528.2200  1150554.900000  127686.957858  59299.082086
   12533.3520  1155361.900000  128498.072884  59812.795355
   12538.1460  1160543.300000  129334.560139  60342.968969
   12543.2880  1162830.300000  129916.537642  60758.654084
   12548.0900  1166909.800000  130640.116065  61245.895632
   12553.2390  1170699.800000  131357.152533  61733.631821
   12558.3930  1174344.300000  132063.679704  62193.894033
   12563.5510  1178847.300000  132921.718949  62775.663571
   12568.7130  1183922.800000  133823.345175  63371.992845
   12573.5360  1185902.900000  134324.391207  63754.808227
   12578.7070  1189916.400000  135053.950446  64280.134388
   12583.8810  1193741.500000  135848.021424  64815.986057
   12589.0610  1195104.100000  136298.669015  65213.393756
   12594.2440  1199722.100000  137111.741617  65801.275696
   12599.4320  1204100.900000  137862.446883  66338.745710
   12604.9720  1206028.000000  138359.530987  66771.663688
   12610.1680  1209405.600000  139049.123646  67300.110478
   12615.3690  1212511.800000  139685.344627  67802.126226
   12620.5740  1217200.500000  140581.983184  68419.627061
   12625.7840  1223341.800000  141637.017956  69118.579519
   12631.3480  1226248.500000  142394.701204  69668.131378
   12636.5660  1227644.800000  142988.873001  70127.184583
   12642.1370  1229808.500000  143650.568821  70646.766851
   12647.3640  1234073.800000  144471.753103  71227.865283
   12652.9450  1237752.500000  145224.455430  71789.484797
   12658.1840  1241092.900000  145916.660668  72321.629048
   12663.7740  1245887.600000  146775.394042  72936.280245
   12669.0200  1248720.000000  147406.533782  73439.424184
   12674.6200  1252867.900000  148223.389214  74005.182339
   12680.2280  1256498.300000  149016.494926  74621.330951
   12685.8370  1257137.100000  149450.206708  75039.052037
   12691.1020  1262105.500000  150397.477145  75709.309903
   12696.7220  1265192.500000  151139.244892  76278.084081
   12702.3490  1268940.900000  151932.583754  76880.417449
   12707.9790  1270839.900000  152556.390192  77405.241617
   12713.6130  1275093.400000  153444.618410  78075.547046
   12719.2550  1276829.300000  154091.437225  78615.413005
   12724.9010  1280510.800000  154908.611500  79244.724269
   12730.5510  1282750.900000  155631.524594  79837.665468
   12736.2080  1287612.400000  156613.804294  80568.054895
   12741.8680  1289296.400000  157247.645454  81113.995911
   12747.8890  1292150.000000  158024.925462  81762.424238
   12753.5620  1296049.100000  158920.767752  82449.382698
   12759.2370  1300935.600000  159881.030120  83190.834284
   12764.9190  1304786.800000  160695.928238  83850.850788
   12770.9620  1305663.400000  161201.243342  84340.362221
   12776.6540  1307975.600000  161839.139750  84914.415893
   12782.3510  1310913.300000  162584.578404  85538.019434
   12788.4100  1313221.400000  163297.465863  86177.108656
   12794.1190  1317244.100000  164175.836962  86866.697420
   12800.1890  1320030.400000  164927.675189  87501.789591
   12806.2660  1320695.000000  165391.004069  87987.379742
   12811.9890  1325790.300000  166427.039710  88789.616641
   12818.0770  1328181.000000  167203.329868  89452.227867
   12824.1700  1330015.400000  167869.316731  90061.457653
   12829.9100  1332267.100000  168542.738153  90638.163634
   12836.0160  1337073.500000  169556.728020  91443.431801
   12842.1270  1337194.300000  169970.159943  91937.177625
   12848.2440  1339500.600000  170653.150494  92573.464204
   12854.3660  1342521.500000  171455.514305  93248.207997
   12860.4950  1345689.900000  172260.539859  93936.554037
   12866.2690  1349560.800000  173183.977843  94704.364348
   12872.4080  1351480.100000  173904.037982  95343.755655
   12878.5550  1352085.000000  174475.464025  95931.589153
   12885.0690  1354193.500000  175245.413284  96631.952057

