# XDI/1.0
# Column.1: energy eV
# Column.2: i0
# Column.3: itrans
# Column.4: irefer
# Beamline.name: SSRL 2-3
# Beamline.notes: vert slits = 0.6mm
# Detector.I0: N2 15cm
# Detector.I1: Ar 30cm
# Detector.I2: Ar 15cm
# Element.edge: K
# Element.symbol: As
# Mono.d_spacing: 3.13550
# Mono.name: Si(111)
# Mono.notes: unfocused, detuned 75%, clockwise at E=12000eV
# Sample.formula: As2O5
# Sample.name: As2O5 arsenic (V) oxide
# Sample.prep: powder on tape (5 layers)
# Sample.reference: GaAs powder
# Sample.temperature: 100K
# Scan.start_time: 1997-04-19 21:41:34
# ///
#    Note: mono d_spacing is nominal!
#     exafs to K16, GaAs in IR
#     413  E XMU XMUR I0
#-------------
#   energy   i0   itrans  irefer
   11634.8900  531640.310000  94214.505097  38364.001220
   11644.9080  528933.310000  94097.488436  38548.996011
   11654.9440  526404.310000  93994.527987  38738.013064
   11664.9980  523479.310000  93829.518914  38902.009488
   11675.0700  520255.310000  93598.529403  39031.010526
   11684.8620  517860.310000  93510.481730  39214.992448
   11694.9690  514902.310000  93301.500789  39364.999871
   11705.0930  512499.310000  93206.490952  39551.996157
   11714.9370  509974.310000  93077.488127  39727.992974
   11725.0950  507633.310000  92989.478861  39915.992424
   11734.9740  504661.310000  92775.493941  40054.996849
   11744.8670  502459.310000  92705.486979  40253.995319
   11755.0790  499797.310000  92529.511440  40415.005377
   11765.0090  497326.310000  92387.470612  40572.985770
   11774.9540  494579.310000  92181.505785  40726.000542
   11784.9180  492117.310000  92012.471075  40859.989117
   11794.8960  489568.310000  91838.537021  41018.016737
   11804.8950  487362.310000  91696.463223  41186.985046
   11814.9090  484705.310000  91415.504543  41268.000693
   11824.9400  481952.310000  91083.454370  41322.980230
   11834.9890  479460.310000  90657.540578  41324.019513
   11845.0570  476923.310000  89955.463898  41116.985239
   11845.3610  477567.310000  90056.487590  41162.992538
   11845.9730  476810.310000  89894.498051  41091.000798
   11846.5830  476389.310000  89789.531977  41038.013599
   11846.8890  476568.310000  89791.477965  41039.990552
   11847.4990  476435.310000  89709.525216  41001.012156
   11848.1100  475550.310000  89529.455315  40920.979625
   11848.4150  475504.310000  89492.511026  40904.003612
   11849.0270  475355.310000  89403.474445  40853.988141
   11849.6370  475467.310000  89383.502641  40842.002746
   11849.9420  474638.310000  89208.476344  40769.989584
   11850.5560  474312.310000  89096.494172  40707.998097
   11850.8600  474717.310000  89144.485861  40731.994530
   11851.4710  474555.310000  89051.528674  40675.013136
   11852.0830  474412.310000  88925.487140  40607.996117
   11852.3900  474622.310000  88960.491096  40619.995725
   11853.0000  474690.310000  88863.511368  40561.004001
   11853.6100  475197.310000  88872.531010  40552.012412
   11853.9170  474371.310000  88661.466462  40449.984870
   11854.5290  474547.310000  88596.496863  40391.998888
   11855.1400  474892.310000  88548.467949  40335.983547
   11855.4460  474514.310000  88426.506825  40271.002767
   11856.0580  473991.310000  88167.462424  40119.980947
   11856.3630  474124.310000  88137.539631  40090.016759
   11856.9760  474348.310000  88012.502924  39996.001358
   11857.5880  474148.310000  87780.480930  39824.992324
   11857.8940  473846.310000  87658.539037  39757.015998
   11858.5040  474366.310000  87515.492002  39612.995323
   11859.1180  474111.310000  87258.512898  39398.006767
   11859.4240  473448.310000  87010.494767  39253.995722
   11860.0350  473364.310000  86700.469886  38991.984659
   11860.6470  473360.310000  86393.535574  38701.016013
   11860.9550  473396.310000  86243.518251  38564.007850
   11861.5660  473011.310000  85779.521377  38141.010694
   11861.8720  472854.310000  85531.465720  37902.983464
   11862.4840  473249.310000  85102.493169  37348.996064
   11863.0980  472810.310000  84453.515630  36587.006807
   11863.4030  472020.310000  84058.502463  36165.000507
   11864.0170  471800.310000  83282.531728  34991.011843
   11864.6280  471721.310000  82395.462305  33450.986111
   11864.9350  471424.310000  81863.527252  32547.011732
   11865.5470  470936.310000  80603.482997  30325.994892
   11865.8540  471142.310000  80122.538399  29434.021311
   11866.4670  471823.310000  78640.479426  26890.997691
   11867.0780  471565.310000  76604.483614  24356.983567
   11867.3880  471466.310000  75474.484592  23235.996435
   11867.9990  472092.310000  72633.521106  21006.008976
   11868.6110  471739.310000  69003.520407  19109.001823
   11868.9190  471646.310000  67347.471635  18422.990373
   11869.5320  471066.310000  61958.503939  16588.005429
   11870.1450  470932.310000  55601.510502  14767.995428
   11870.4510  470961.310000  52315.513183  13883.997893
   11871.0640  470346.310000  44325.505361  11791.999030
   11871.3710  470036.310000  41213.503068  10991.002099
   11871.9850  469747.310000  32623.500791  8777.002179
   11872.5990  469506.310000  24929.497438  6779.000949
   11872.9050  469416.310000  21784.507005  5955.999491
   11873.5180  468981.310000  16055.507175  4450.003652
   11874.1330  469654.310000  12519.506068  3532.002228
   11874.4390  469439.310000  11646.503720  3307.001955
   11875.0530  469027.310000  10761.500504  3121.001666
   11875.3580  469184.310000  10897.502955  3189.000919
   11875.9750  469769.310000  12094.499282  3612.000393
   11876.5880  469471.310000  14012.505617  4249.002244
   11876.8940  469141.310000  14878.497111  4534.999729
   11877.5090  468981.310000  17375.495637  5360.996741
   11878.1230  469361.310000  19962.506829  6210.999640
   11878.4300  468864.310000  21113.494987  6592.999530
   11879.0440  468455.310000  23514.510709  7389.002215
   11879.3510  468325.310000  24386.511237  7680.004716
   11879.9660  468896.310000  26524.495289  8394.994678
   11880.5800  468693.310000  28158.510376  8949.007491
   11880.8870  467997.310000  28823.486205  9176.992605
   11881.5000  468130.310000  29946.507218  9552.001344
   11882.1160  468262.310000  30740.488531  9823.992720
   11882.4240  467845.310000  30939.500693  9888.996824
   11883.0370  467303.310000  31281.489503  9996.994851
   11883.6520  467207.310000  31484.491076  10059.999126
   11883.9590  467230.310000  31545.511268  10075.999464
   11884.5740  466342.310000  31574.503236  10085.996083
   11884.8810  466309.310000  31609.514571  10100.007529
   11885.4960  466060.310000  31649.490368  10118.000308
   11886.1100  466011.310000  31719.508580  10153.006862
   11886.4190  465648.310000  31735.491162  10160.997837
   11887.0340  466023.310000  31861.508602  10211.000855
   11887.6480  465979.310000  31981.487955  10251.994110
   11887.9550  466224.310000  32059.510225  10278.001867
   11888.5720  466017.310000  32235.514494  10334.003612
   11888.8790  466460.310000  32364.493307  10374.002701
   11889.4930  466696.310000  32650.486182  10459.992549
   11890.1090  466327.310000  32940.495579  10552.995672
   11890.4170  465713.310000  33061.492290  10586.993614
   11891.0320  465848.310000  33470.487022  10707.999362
   11891.6480  466113.310000  33895.482946  10840.994757
   11891.9560  465844.310000  34073.483765  10899.996625
   11892.5700  465567.310000  34468.493795  11029.998348
   11892.8790  465591.310000  34631.484749  11088.995633
   11893.4950  465446.310000  35015.497588  11231.998927
   11894.1090  465363.310000  35369.483925  11376.995891
   11894.4190  464893.310000  35497.488177  11430.999718
   11895.0350  464681.310000  35823.489724  11576.993570
   11895.6490  464833.060000  36135.267604  11725.762338
   11896.2660  464573.340000  36378.518015  11840.045070
   11896.8810  464620.120000  36614.272575  11946.831843
   11897.4980  464710.440000  36833.564266  12029.157592
   11898.4220  465009.250000  37178.338670  12142.993027
   11899.0380  464716.590000  37424.655901  12215.354621
   11899.6550  464667.440000  37734.431005  12293.220935
   11900.5800  465082.810000  38391.745508  12486.617562
   11901.1950  465742.720000  38914.556303  12640.530764
   11902.1210  465523.090000  39623.869351  12865.968158
   11903.0450  465479.030000  40374.728109  13120.921894
   11903.6620  465712.470000  40878.057454  13289.396034
   11904.5870  466488.410000  41602.912440  13537.399323
   11905.5130  466396.870000  42262.278376  13776.908920
   11906.4380  466834.870000  42893.126760  13995.944341
   11907.3630  467206.370000  43508.488885  14217.478185
   11908.2910  467966.370000  44085.389970  14415.563685
   11909.2150  468176.910000  44558.736372  14578.141325
   11910.1430  468364.970000  44919.627729  14698.255928
   11911.0680  469783.530000  45278.033996  14810.879531
   11912.3030  470618.590000  45423.971771  14834.031670
   11913.2290  471285.220000  45356.362907  14801.691627
   11914.1560  471520.310000  45151.304699  14717.881402
   11915.3920  472182.940000  44739.755683  14586.602862
   11916.3180  473699.090000  44457.660592  14507.812376
   11917.5560  473595.750000  43808.116556  14350.562065
   11918.7930  473879.940000  43096.078137  14178.829877
   11919.7190  474835.620000  42608.539076  14075.612374
   11920.9570  476866.840000  42056.514221  13953.917462
   11922.1930  477164.560000  41463.993367  13784.743277
   11923.4320  478446.810000  41047.997176  13676.089893
   11924.6690  479161.560000  40680.457871  13576.940831
   11925.9080  480641.840000  40452.456759  13509.314052
   11927.1460  481532.620000  40188.985903  13427.233235
   11928.3840  483001.940000  39985.011453  13357.655554
   11929.6230  483529.750000  39675.538675  13246.585797
   11930.8610  485024.090000  39419.537136  13143.042877
   11932.4110  486986.970000  39079.083190  12989.019765
   11933.6510  488028.310000  38783.132257  12859.520301
   11934.8910  489032.220000  38517.719296  12723.547072
   11936.4410  489914.620000  38242.755017  12603.066168
   11937.9920  492203.530000  38197.356430  12558.130568
   11939.2320  493727.970000  38185.417332  12553.703197
   11940.7840  494154.940000  38086.013376  12530.806242
   11942.3360  494005.410000  37993.096362  12526.413170
   11943.5770  495647.370000  38081.695221  12582.547394
   11945.1300  498585.870000  38287.820053  12675.206374
   11946.6840  501737.910000  38519.433945  12780.376284
   11948.2370  503380.440000  38653.573401  12848.065126
   11949.7910  504860.470000  38812.179192  12915.266924
   11951.3460  505929.030000  38981.313978  12992.995474
   11952.8990  508512.120000  39306.977593  13125.252548
   11954.7670  510274.720000  39630.152186  13271.027125
   11956.3220  512486.840000  39969.794551  13420.307336
   11957.8780  513902.470000  40242.976847  13537.119440
   11959.7450  515314.620000  40558.672390  13657.456371
   11961.3010  517450.280000  40874.828898  13763.297439
   11963.1710  520136.440000  41235.525811  13878.656574
   11964.7290  522196.160000  41517.760633  13971.552565
   11966.5980  523657.340000  41757.435829  14061.949593
   11968.4700  525518.060000  42037.688325  14199.880612
   11970.0270  527606.310000  42364.399732  14370.325922
   11971.9000  529884.060000  42808.651838  14614.296003
   11973.7710  532453.370000  43330.393868  14881.775234
   11975.6440  533828.120000  43817.615395  15115.775212
   11977.5190  536954.440000  44465.395133  15371.301766
   11979.3920  538863.250000  45013.652297  15589.331906
   11981.2670  540438.620000  45494.437654  15764.901881
   11983.1410  541977.500000  45916.727658  15917.983179
   11985.0170  543647.870000  46299.480442  16043.579517
   11987.2060  544866.750000  46609.774360  16116.688201
   11989.0830  549516.120000  47114.608359  16253.334849
   11991.2730  553578.060000  47607.902769  16358.485802
   11993.1510  555365.500000  47872.750313  16399.182000
   11995.3440  556959.440000  48146.065360  16431.371741
   11997.2250  559261.940000  48419.903095  16470.089037
   11999.4170  561986.870000  48730.225610  16562.324155
   12001.2990  564590.370000  49009.073741  16676.065025
   12003.4940  568110.440000  49324.446800  16809.359367
   12005.6880  570546.940000  49533.313570  16922.150507
   12007.8860  572446.000000  49684.668659  17014.457228
   12010.0830  574587.560000  49852.542418  17110.280753
   12012.2820  575923.620000  49915.972800  17188.645969
   12014.4810  580083.250000  50192.852080  17334.515469
   12016.6820  584033.370000  50471.262839  17483.911612
   12018.8810  586256.000000  50595.192113  17570.819696
   12021.0830  589019.120000  50787.570270  17683.246129
   12023.6020  592241.810000  50980.541175  17829.208053
   12025.8040  594878.000000  51077.972744  17916.666025
   12028.0080  598424.690000  51210.914637  18009.649288
   12030.5270  601048.870000  51224.362334  18061.168479
   12032.7330  604859.620000  51350.331808  18145.187936
   12035.2570  608316.870000  51452.801616  18225.740607
   12037.7800  611129.620000  51547.725161  18307.779535
   12039.9890  613709.870000  51670.255754  18389.397800
   12042.5140  617179.690000  51975.227626  18532.486392
   12045.0400  619237.000000  52248.703389  18666.100570
   12047.5660  622877.810000  52721.712254  18883.251552
   12050.0960  625293.120000  53098.226678  19053.913848
   12052.6250  627880.000000  53471.246745  19187.097835
   12055.1540  629810.370000  53749.790755  19268.810917
   12057.6880  632488.250000  54049.843216  19356.023119
   12060.2210  638879.690000  54681.375013  19578.757120
   12062.7540  640547.620000  54947.405646  19696.017673
   12065.2880  645342.060000  55429.974412  19910.804056
   12068.1420  648697.000000  55808.028311  20083.101410
   12070.6780  651575.440000  56155.643527  20224.933687
   12073.2180  655457.440000  56621.703941  20373.262381
   12076.0730  658003.940000  56981.287197  20486.106387
   12078.6150  663128.940000  57551.399388  20664.483442
   12081.4730  665413.500000  57868.989387  20753.370183
   12084.3350  668791.560000  58274.140867  20883.814687
   12086.8780  670984.120000  58555.760460  20989.734199
   12089.7420  677056.190000  59208.864449  21249.179184
   12092.6060  678780.810000  59493.511875  21407.156082
   12095.4740  683643.870000  60064.688562  21689.670299
   12098.3400  686463.560000  60464.302100  21918.655926
   12101.2090  689650.690000  60885.449581  22155.199803
   12104.0800  693342.310000  61370.166599  22391.262842
   12106.9520  696660.500000  61827.311752  22630.831553
   12109.8250  700210.190000  62290.975602  22875.913880
   12112.6970  702969.440000  62686.205786  23105.526239
   12115.8940  708079.120000  63277.881130  23424.646537
   12118.7710  710204.370000  63583.103937  23616.302883
   12121.6500  715520.190000  64175.840048  23927.478263
   12124.8500  719136.440000  64658.016972  24194.146005
   12127.7310  722739.250000  65134.769936  24427.362234
   12130.9360  726889.560000  65706.020271  24696.093026
   12133.8190  728923.370000  66022.765204  24863.337028
   12137.0270  732474.690000  66466.016528  25038.103071
   12140.2350  738411.560000  67129.751659  25299.376181
   12143.4450  742252.940000  67599.059793  25458.197023
   12146.3370  744364.810000  67866.819684  25557.511118
   12149.5510  749567.250000  68370.130455  25756.363943
   12152.7650  752459.120000  68650.929346  25870.726268
   12155.9810  757033.560000  69030.165164  26018.584870
   12159.2000  761268.560000  69391.001636  26185.994314
   12162.4210  765113.000000  69765.354686  26349.930445
   12165.6420  768363.000000  70093.164440  26522.363366
   12169.1890  773032.500000  70541.493128  26737.321321
   12172.4150  776929.500000  70986.279555  26965.781561
   12175.6430  781452.060000  71543.653683  27225.787783
   12178.8720  785798.060000  72134.529314  27501.315456
   12182.4260  789082.690000  72627.898066  27734.352822
   12185.6580  794475.750000  73264.740502  28013.898532
   12189.2180  796879.310000  73574.112900  28185.975653
   12192.4520  800449.440000  73957.038952  28396.581549
   12196.0160  805173.060000  74482.428290  28670.695422
   12199.5790  808016.250000  74823.287722  28870.313993
   12202.8220  813957.870000  75520.686183  29202.461624
   12206.3900  816807.060000  76017.601359  29466.137136
   12209.9610  820471.750000  76655.049439  29790.334037
   12213.5340  825631.000000  77354.978828  30160.045220
   12217.1070  828987.690000  77812.439240  30441.286812
   12220.6860  833192.940000  78278.363454  30733.025820
   12224.2630  838400.690000  78781.810308  31030.293486
   12227.8450  841826.000000  79192.796552  31282.090399
   12231.4270  846737.810000  79839.238599  31614.389959
   12235.0130  850541.060000  80393.287843  31920.243090
   12238.9270  852986.940000  80814.728854  32161.572418
   12242.5160  858644.250000  81518.720385  32512.436961
   12246.1080  862997.120000  82135.256170  32810.836892
   12250.0290  867913.500000  82798.260715  33093.740486
   12253.6250  871556.370000  83288.754866  33305.160150
   12257.5500  875533.750000  83780.786268  33525.106315
   12261.1520  879677.690000  84310.345426  33776.583922
   12265.0810  882995.120000  84846.324572  34031.537696
   12269.0160  885985.060000  85326.927801  34269.062806
   12272.6230  892339.560000  86111.996404  34639.090681
   12276.5610  897272.560000  86774.489023  34972.602639
   12280.5020  900141.060000  87302.620919  35240.690123
   12284.4450  902402.060000  87787.152543  35505.249669
   12288.3910  908911.620000  88672.238798  35945.347564
   12292.3380  912975.620000  89281.846189  36290.974611
   12296.2890  916185.250000  89813.974588  36608.123972
   12300.2430  921646.310000  90555.555767  36996.770988
   12304.1980  926281.870000  91197.691438  37358.952822
   12308.1580  928291.000000  91537.274528  37604.633012
   12312.1190  932383.620000  92073.423423  37908.855511
   12316.0840  938599.810000  92771.102974  38292.605166
   12320.3800  942452.440000  93298.259846  38621.864600
   12324.3490  947442.620000  93956.919663  38989.640232
   12328.6520  953055.310000  94701.035981  39407.917179
   12332.6270  956488.560000  95230.743781  39732.747771
   12336.6040  960247.250000  95793.880339  40076.058190
   12340.9150  965218.500000  96491.555870  40489.905680
   12345.2290  969117.250000  97067.790506  40832.294722
   12349.2150  972786.560000  97599.531707  41138.198564
   12353.5360  978154.370000  98320.691670  41536.588944
   12357.8590  981878.690000  98912.415547  41878.520871
   12362.1870  985903.500000  99543.673711  42234.983885
   12366.1830  990028.810000  100126.365547  42574.936868
   12370.5150  994748.690000  100807.638586  42970.435486
   12374.8510  999468.060000  101525.418678  43363.457678
   12379.1890  1001919.900000  102023.618289  43665.959438
   12383.5320  1007808.400000  102824.366300  44089.997876
   12387.8760  1010386.200000  103239.642598  44347.565439
   12392.5600  1014479.700000  103847.465975  44698.665617
   12396.9110  1020062.700000  104630.738438  45110.262701
   12401.2650  1024401.100000  105252.521353  45472.385432
   12405.6210  1028207.100000  105855.809979  45814.021239
   12410.3170  1032468.600000  106544.625136  46212.185224
   12414.6820  1035477.600000  107115.966703  46569.878524
   12419.0490  1040153.200000  107909.864314  47011.111515
   12423.7550  1044830.300000  108735.111937  47507.792911
   12428.1290  1049713.800000  109517.005062  47968.058168
   12432.8420  1052185.900000  110030.333703  48323.809462
   12437.5600  1055562.500000  110593.252510  48694.114916
   12441.9420  1061295.600000  111374.534354  49167.877056
   12446.6660  1064136.300000  111873.499387  49532.234676
   12451.3950  1068575.400000  112526.825092  49970.045629
   12456.1250  1073682.000000  113276.772913  50418.427933
   12460.5220  1076249.300000  113759.139896  50770.293267
   12465.2610  1078760.900000  114293.002292  51160.668662
   12470.0030  1085159.100000  115271.462619  51724.610385
   12474.7480  1089921.900000  116100.398523  52234.046876
   12479.4980  1094681.100000  116877.732493  52724.959960
   12484.2500  1098675.900000  117612.698074  53183.447273
   12489.0070  1101324.100000  118190.113833  53567.426145
   12494.1070  1105193.900000  118945.103753  54046.958670
   12498.8710  1107717.300000  119524.538137  54427.981659
   12503.6400  1112026.100000  120235.575287  54860.562880
   12508.4110  1116446.400000  120994.980705  55352.601722
   12513.5270  1117963.300000  121457.065104  55691.237952
   12518.3070  1124829.600000  122454.537236  56279.341767
   12523.4320  1129273.500000  123182.474013  56753.940189
   12528.2200  1131514.900000  123666.030948  57103.118698
   12533.3520  1135592.900000  124396.018278  57585.769068
   12538.1460  1140454.300000  125222.476934  58088.927597
   12543.2880  1144439.300000  125936.536530  58557.653669
   12548.0900  1147089.800000  126491.157591  58945.913626
   12553.2390  1153426.800000  127459.111183  59542.617494
   12558.3930  1156337.300000  128094.694179  59993.893898
   12563.5510  1160258.300000  128847.808876  60505.709454
   12568.7130  1163697.800000  129560.372911  60986.008718
   12573.5360  1166596.900000  130126.383247  61399.804863
   12578.7070  1172100.400000  131051.926741  62018.121959
   12583.8810  1174859.500000  131679.092469  62465.021555
   12589.0610  1178189.100000  132341.655459  62961.389765
   12594.2440  1181695.100000  133036.724221  63474.269056
   12599.4320  1186360.900000  133836.356491  64023.700392
   12604.9720  1188373.000000  134341.548125  64461.672586
   12610.1680  1193129.600000  135172.136297  65027.109352
   12615.3690  1194557.800000  135649.228823  65445.069293
   12620.5740  1201283.500000  136711.907606  66131.590170
   12625.7840  1203797.800000  137389.048527  66653.594194
   12631.3480  1206574.500000  138111.679832  67185.122525
   12636.5660  1212294.800000  139169.883646  67884.190430
   12642.1370  1214307.500000  139803.551614  68376.762299
   12647.3640  1218375.800000  140605.759079  68930.871444
   12652.9450  1221856.500000  141315.460861  69457.489419
   12658.1840  1224246.900000  141876.669904  69903.628546
   12663.7740  1228355.600000  142652.363113  70481.265952
   12669.0200  1230284.000000  143201.584015  70908.450542
   12674.6200  1233509.900000  143921.348859  71446.160202
   12680.2280  1238190.300000  144807.483045  72084.328087
   12685.8370  1240472.100000  145438.208411  72598.046369
   12691.1020  1245300.500000  146344.458138  73225.296747
   12696.7220  1246417.500000  146847.218366  73666.070161
   12702.3490  1249668.900000  147601.476457  74254.361389
   12707.9790  1253275.900000  148394.329962  74844.215167
   12713.6130  1258821.400000  149447.650161  75579.559177
   12719.2550  1261934.300000  150233.384487  76192.389435
   12724.9010  1267027.800000  151216.732405  76902.787304
   12730.5510  1263168.900000  151186.449894  77096.620169
   12736.2080  1266376.400000  151981.814599  77722.063368
   12741.8680  1269774.400000  152776.569786  78336.960282
   12747.8890  1272190.000000  153489.951726  78949.436545
   12753.5620  1275561.100000  154283.749956  79567.374379
   12759.2370  1279974.600000  155170.034583  80260.838571
   12764.9190  1284260.800000  156050.953495  80920.863145
   12770.9620  1285295.400000  156573.234747  81443.355509
   12776.6540  1288788.600000  157328.186961  82075.436886
   12782.3510  1291973.300000  158129.452707  82708.949986
   12788.4100  1295924.400000  158996.397046  83419.070132
   12794.1190  1295939.100000  159383.760950  83856.649300
   12800.1890  1300080.400000  160285.626235  84562.769058
   12806.2660  1302575.000000  160989.050530  85149.407906
   12811.9890  1303053.300000  161446.930007  85638.554252
   12818.0770  1306728.000000  162338.487072  86339.308563
   12824.1700  1309695.400000  163134.313398  86990.452397
   12829.9100  1313124.100000  163940.799863  87659.201528
   12836.0160  1315206.500000  164566.701210  88247.411726
   12842.1270  1318457.300000  165407.085457  88947.136378
   12848.2440  1322611.600000  166336.117564  89705.451839
   12854.3660  1321900.500000  166668.490522  90120.192610
   12860.4950  1323926.900000  167339.473319  90742.518002
   12866.2690  1327860.800000  168235.957893  91471.349704
   12872.4080  1331930.100000  169243.985039  92281.729246
   12878.5550  1334910.000000  170080.550760  93003.632621
   12885.0690  1334702.500000  170548.497579  93527.994655

