# XDI/1.0
# Column.1: energy eV
# Column.2: i0
# Column.3: itrans
# Column.4: irefer
# Beamline.name: SSRL 2-3
# Beamline.notes: vert slits = 0.6mm
# Detector.I0: N2 15cm
# Detector.I1: Ar 30cm
# Detector.I2: Ar 15cm
# Element.edge: K
# Element.symbol: As
# Mono.d_spacing: 3.13550
# Mono.name: Si(111)
# Mono.notes: unfocused, detuned 75%, clockwise at E=12000eV
# Sample.formula: As2S3
# Sample.name: As2S3 arsenious sulfide (orpiment)
# Sample.prep: powder on tape (5 layers)
# Sample.reference: GaAs powder
# Sample.temperature: 10K
# Scan.start_time: 1997-04-19 16:23:01
# ///
#    Note: mono d_spacing is nominal!
#     exafs to K16, GaAs in IR
#     413  E XMU XMUR I0
#-------------
#   energy   i0   itrans  irefer
   11634.8900  553511.310000  88214.485617  36275.993469
   11644.9080  550935.310000  88169.526391  36479.012585
   11654.9440  548612.310000  88148.511013  36683.003107
   11664.9980  546437.310000  88146.534045  36893.013211
   11675.0700  543773.310000  88079.467825  37091.986555
   11684.8620  540485.310000  87877.470029  37221.987860
   11694.9690  536227.310000  87526.460818  37273.982270
   11705.0930  533727.310000  87478.500369  37487.998925
   11714.9370  532276.310000  87565.469305  37732.988343
   11725.0950  530964.310000  87684.470301  38006.986807
   11734.9740  527960.310000  87529.520222  38160.010068
   11744.8670  523742.310000  87157.496668  38208.999946
   11755.0790  521620.310000  87119.518150  38422.009050
   11765.0090  518694.310000  86980.478774  38565.990446
   11774.9540  516199.310000  86870.538797  38726.017098
   11784.9180  514586.310000  86884.469233  38941.985849
   11794.8960  511671.310000  86686.524611  39088.012966
   11804.8950  508431.310000  86430.456786  39179.980812
   11814.9090  505185.310000  86124.533473  39266.016020
   11824.9400  502909.310000  85933.509823  39363.002631
   11834.9890  500924.310000  85673.538745  39420.016166
   11845.0570  498513.310000  85034.519783  39242.007352
   11845.3610  497258.310000  84809.505486  39136.002740
   11845.9730  497124.310000  84735.540281  39112.019175
   11846.5830  497065.310000  84695.496134  39096.999539
   11846.8890  498713.310000  84972.476790  39225.988599
   11847.4990  498033.310000  84803.512450  39150.005477
   11848.1100  496622.310000  84527.489210  39015.995285
   11848.4150  497224.310000  84598.475998  39049.987346
   11849.0270  497017.310000  84502.477585  39008.990861
   11849.6370  497082.310000  84477.533736  39001.017131
   11849.9420  495609.310000  84181.479186  38875.989941
   11850.5560  495804.310000  84132.531596  38836.014023
   11850.8600  495063.310000  83988.480571  38773.989704
   11851.4710  494768.310000  83863.509669  38712.006306
   11852.0830  493826.310000  83593.507549  38578.003486
   11852.3900  493502.310000  83507.507644  38538.002783
   11853.0000  494439.310000  83561.460375  38551.982041
   11853.6100  494290.310000  83420.494505  38475.997936
   11853.9170  493808.310000  83280.498111  38403.000918
   11854.5290  493014.310000  82996.480227  38259.989899
   11855.1400  494447.310000  83059.531137  38267.014822
   11855.4460  494584.310000  83018.513072  38251.004906
   11856.0580  493918.310000  82717.495970  38083.999723
   11856.3630  492859.310000  82423.513817  37944.006431
   11856.9760  493685.310000  82330.471637  37876.985690
   11857.5880  493149.310000  81970.464080  37675.984977
   11857.8940  492660.310000  81762.516917  37555.006949
   11858.5040  492011.310000  81305.503178  37297.999930
   11859.1180  493256.310000  81129.523859  37168.009719
   11859.4240  494225.310000  81082.528498  37130.012555
   11860.0350  492886.310000  80345.536420  36706.015031
   11860.6470  492292.310000  79634.519912  36313.009521
   11860.9550  492451.310000  79345.488748  36135.996185
   11861.5660  492837.310000  78605.535218  35679.015669
   11861.8720  492817.310000  78101.521447  35390.008602
   11862.4840  491308.310000  76733.536349  34606.016469
   11863.0980  490921.310000  75207.491739  33716.996257
   11863.4030  492201.310000  74686.533352  33385.013426
   11864.0170  492749.310000  72545.470584  32115.987070
   11864.6280  491058.310000  69329.526161  30310.011739
   11864.9350  490733.310000  67499.475225  29280.990686
   11865.5470  490183.310000  62884.481936  26738.993298
   11865.8540  490214.310000  60829.487479  25629.995450
   11866.4670  489667.310000  54307.492526  22245.997423
   11867.0780  488049.310000  46173.518718  18259.007973
   11867.3880  489201.310000  41920.504789  16240.002386
   11867.9990  489804.310000  33425.495396  12367.998171
   11868.6110  489453.310000  25262.499789  8811.001176
   11868.9190  489386.310000  22478.497320  7628.995442
   11869.5320  489076.310000  16993.493415  5312.999378
   11870.1450  490031.310000  14474.497199  4166.999727
   11870.4510  490233.310000  14281.506101  3988.002267
   11871.0640  488495.310000  15729.499063  4245.997908
   11871.3710  488028.310000  16889.504888  4540.001836
   11871.9850  488951.310000  20710.501987  5576.999535
   11872.5990  488301.310000  24890.511183  6761.999659
   11872.9050  487597.310000  26971.503447  7368.004287
   11873.5180  486287.310000  30505.488617  8409.000515
   11874.1330  487002.310000  33107.500781  9221.999379
   11874.4390  487476.310000  33885.483061  9475.994391
   11875.0530  486888.310000  34881.505273  9865.006061
   11875.3580  486773.310000  35004.496763  9961.996787
   11875.9750  487031.310000  34737.486714  10013.992977
   11876.5880  487399.310000  34134.504181  9996.996776
   11876.8940  487087.310000  33844.496064  9987.001409
   11877.5090  486609.310000  33220.513543  9981.002767
   11878.1230  486532.310000  32890.514811  10046.007708
   11878.4300  487456.310000  32903.487853  10125.000536
   11879.0440  486494.310000  32896.497916  10254.003409
   11879.3510  486531.310000  32972.512414  10317.002446
   11879.9660  486565.310000  33219.502801  10495.999003
   11880.5800  487549.310000  33605.489582  10676.995076
   11880.8870  487804.310000  33763.499459  10761.999034
   11881.5000  486819.310000  33968.513688  10876.005446
   11882.1160  486683.310000  34229.492425  10997.001273
   11882.4240  487305.310000  34350.509342  11050.999171
   11883.0370  487515.310000  34602.491740  11156.002514
   11883.6520  485640.310000  34667.486076  11186.998402
   11883.9590  486422.310000  34821.506445  11239.003649
   11884.5740  486210.310000  34993.497794  11291.003599
   11884.8810  486684.310000  35101.493478  11321.003065
   11885.4960  485343.310000  35178.513919  11345.004288
   11886.1100  485393.310000  35319.510292  11385.999775
   11886.4190  484694.310000  35345.511232  11401.003793
   11887.0340  485456.310000  35524.489154  11466.001829
   11887.6480  484679.310000  35584.510887  11494.003398
   11887.9550  484620.310000  35639.505169  11522.005381
   11888.5720  485159.310000  35816.486753  11587.991093
   11888.8790  486647.310000  35996.497832  11642.004685
   11889.4930  486893.310000  36180.489994  11708.991174
   11890.1090  484891.310000  36192.494487  11711.002245
   11890.4170  485347.310000  36313.505984  11749.007134
   11891.0320  486041.310000  36549.504169  11817.997960
   11891.6480  486337.310000  36761.512307  11875.998572
   11891.9560  485164.310000  36775.490971  11878.993844
   11892.5700  484459.310000  36921.515032  11917.005866
   11892.8790  486240.310000  37141.500887  11987.002847
   11893.4950  485538.310000  37300.517217  12043.007403
   11894.1090  484456.310000  37425.498561  12099.005411
   11894.4190  484566.310000  37522.482427  12144.996627
   11895.0350  484439.310000  37733.494954  12235.996746
   11895.6490  484881.060000  37959.265481  12357.765165
   11896.2660  484567.340000  38130.497083  12456.037066
   11896.8810  484216.120000  38293.276634  12547.837450
   11897.4980  484472.440000  38497.547822  12655.153789
   11898.4220  485501.250000  38849.331226  12801.993006
   11899.0380  484710.590000  38944.633794  12840.342742
   11899.6550  484975.440000  39120.446178  12892.222860
   11900.5800  484932.810000  39317.760789  12936.623828
   11901.1950  486124.720000  39518.551366  12991.537923
   11902.1210  486136.090000  39653.872297  13013.959711
   11903.0450  486162.030000  39759.705046  13040.918138
   11903.6620  486506.470000  39831.067594  13057.402321
   11904.5870  487150.410000  39917.903219  13105.394319
   11905.5130  486754.870000  39888.244217  13109.899729
   11906.4380  488014.870000  39950.128020  13152.934330
   11907.3630  486768.370000  39779.487248  13113.488850
   11908.2910  487987.370000  39776.390166  13124.563153
   11909.2150  489172.910000  39742.773513  13123.152362
   11910.1430  489852.970000  39633.641279  13091.252837
   11911.0680  490506.530000  39479.067387  13034.889783
   11912.3030  490761.590000  39202.967670  12938.035349
   11913.2290  492586.220000  39096.365601  12891.697652
   11914.1560  493622.310000  38917.291760  12817.887677
   11915.3920  493662.940000  38541.746427  12680.596324
   11916.3180  494269.090000  38298.666773  12602.813535
   11917.5560  494713.750000  37992.102625  12517.558172
   11918.7930  495764.940000  37722.091456  12482.840024
   11919.7190  495964.620000  37513.527210  12457.608908
   11920.9570  496657.840000  37297.501418  12443.909897
   11922.1930  496849.560000  37082.986670  12423.741562
   11923.4320  499521.810000  37108.990092  12458.090619
   11924.6690  499999.560000  37009.484529  12444.953737
   11925.9080  501113.840000  36995.463641  12450.319694
   11927.1460  501000.620000  36935.987198  12442.230086
   11928.3840  502968.940000  37063.009314  12487.653281
   11929.6230  504451.750000  37182.536271  12529.591868
   11930.8610  505997.090000  37323.565809  12563.049401
   11932.4110  506674.970000  37458.090195  12582.018773
   11933.6510  506362.310000  37540.127996  12575.512124
   11934.8910  507750.220000  37788.719560  12626.536033
   11936.4410  508849.620000  38106.753775  12684.065629
   11937.9920  511650.530000  38584.353070  12804.130746
   11939.2320  512046.970000  38833.425554  12880.703762
   11940.7840  512163.940000  39165.010899  12995.807028
   11942.3360  512250.410000  39491.110167  13123.422195
   11943.5770  513809.370000  39862.710827  13268.546654
   11945.1300  517135.870000  40455.825265  13499.202972
   11946.6840  520308.910000  41025.412546  13714.363207
   11948.2370  522208.440000  41482.548409  13889.064703
   11949.7910  523145.470000  41833.170217  14034.261230
   11951.3460  524250.030000  42159.317974  14171.001476
   11952.8990  526683.120000  42527.974264  14313.255664
   11954.7670  528879.750000  42881.139490  14465.031127
   11956.3220  530458.810000  43112.816147  14583.318563
   11957.8780  532497.440000  43326.960694  14692.116980
   11959.7450  533839.620000  43462.672087  14763.448894
   11961.3010  535530.250000  43579.827774  14816.291873
   11963.1710  537461.440000  43700.520723  14842.653335
   11964.7290  541180.120000  43938.729954  14916.547429
   11966.5980  542826.370000  43980.462808  14938.959144
   11968.4700  544223.060000  43988.674347  14963.878539
   11970.0270  548049.310000  44194.407974  15080.330287
   11971.9000  549918.060000  44202.629811  15175.287544
   11973.7710  551243.370000  44175.370244  15267.775021
   11975.6440  554214.120000  44249.634444  15377.772310
   11977.5190  557749.440000  44390.382219  15477.290635
   11979.3920  561258.250000  44530.668799  15549.339134
   11981.2670  562778.620000  44496.446671  15555.905414
   11983.1410  566567.500000  44652.720105  15619.985655
   11985.0170  567488.870000  44596.489128  15599.582278
   11987.2060  569544.750000  44619.784419  15593.690191
   11989.0830  570614.120000  44603.582654  15556.338628
   11991.2730  576301.060000  44944.895626  15616.486728
   11993.1510  580494.500000  45217.732710  15658.177845
   11995.3440  583101.440000  45401.047060  15658.363259
   11997.2250  587191.940000  45739.888507  15728.081591
   11999.4170  589690.870000  46019.234502  15785.320887
   12001.2990  592538.370000  46339.078372  15900.071887
   12003.4940  593868.440000  46619.448943  16006.354719
   12005.6880  596926.940000  47079.314753  16198.144965
   12007.8860  599854.000000  47573.662167  16420.446437
   12010.0830  601714.560000  48004.568336  16615.287080
   12012.2820  602693.620000  48392.941908  16785.643621
   12014.4810  607449.250000  49105.872605  17086.516311
   12016.6820  612037.370000  49790.258017  17374.912279
   12018.8810  615018.000000  50335.144738  17621.813458
   12021.0830  618121.120000  50859.576100  17849.248836
   12023.6020  621874.810000  51429.544466  18112.201051
   12025.8040  624837.000000  51864.928781  18319.660286
   12028.0080  629052.690000  52331.894417  18540.657457
   12030.5270  631651.870000  52618.375549  18695.173777
   12032.7330  634237.620000  52898.325229  18835.185300
   12035.2570  638503.870000  53269.755790  19020.716676
   12037.7800  641232.620000  53490.725985  19136.782966
   12039.9890  645267.870000  53827.233227  19307.382446
   12042.5140  649138.690000  54110.237014  19450.492515
   12045.0400  651352.000000  54248.709422  19534.110673
   12047.5660  655386.810000  54511.713814  19671.258498
   12050.0960  657333.120000  54603.223635  19758.917767
   12052.6250  661815.000000  54902.235144  19878.088818
   12055.1540  663462.370000  54963.819295  19891.810966
   12057.6880  666124.250000  55112.812159  19923.007401
   12060.2210  669689.690000  55371.357966  19994.764331
   12062.7540  676126.620000  55852.448556  20183.034317
   12065.2880  679706.060000  56098.015637  20307.807947
   12068.1420  680904.000000  56169.074354  20386.100632
   12070.6780  687123.440000  56678.613682  20589.906003
   12073.2180  690087.440000  56913.713020  20671.259679
   12076.0730  693920.940000  57272.297049  20785.113528
   12078.6150  695242.940000  57432.384748  20807.475859
   12081.4730  700337.500000  57951.031051  20969.402716
   12084.3350  703595.560000  58326.101451  21095.794386
   12086.8780  706610.120000  58694.736613  21212.742383
   12089.7420  711414.190000  59265.882662  21445.199181
   12092.6060  715378.810000  59755.498196  21660.150863
   12095.4740  718553.870000  60202.668487  21901.665373
   12098.3400  719584.560000  60490.301444  22094.662102
   12101.2090  724408.690000  61098.463714  22390.208037
   12104.0800  726203.310000  61478.161669  22600.251102
   12106.9520  732037.500000  62199.299782  22940.817377
   12109.8250  734119.190000  62588.990975  23149.910157
   12112.6970  737994.440000  63157.164262  23450.511117
   12115.8940  742047.120000  63735.884837  23758.649299
   12118.7710  748094.370000  64459.114115  24124.304870
   12121.6500  750231.190000  64822.801234  24344.462535
   12124.8500  754671.440000  65377.062832  24647.162338
   12127.7310  756517.250000  65668.761157  24825.358114
   12130.9360  762835.560000  66347.991588  25145.080986
   12133.8190  767532.370000  66847.750597  25368.330223
   12137.0270  769336.690000  67091.992633  25486.094814
   12140.2350  773272.560000  67502.766802  25655.379756
   12143.4450  778333.940000  67985.038634  25811.188504
   12146.3370  782424.810000  68363.826223  25954.513583
   12149.5510  785616.250000  68649.128799  26071.363854
   12152.7650  791360.120000  69141.915307  26261.721848
   12155.9810  794195.560000  69393.189462  26364.592800
   12159.2000  799787.560000  69875.992996  26569.991568
   12162.4210  803612.000000  70224.311282  26743.914861
   12165.6420  806502.000000  70510.129293  26892.350481
   12169.1890  810817.500000  70930.462660  27107.311755
   12172.4150  815612.500000  71422.315657  27342.795205
   12175.6430  820378.060000  71909.636544  27582.783250
   12178.8720  824971.060000  72406.516839  27829.310698
   12182.4260  828600.690000  72850.861801  28043.336964
   12185.6580  832186.750000  73308.742710  28248.898757
   12189.2180  836931.310000  73901.121239  28526.976978
   12192.4520  840213.440000  74375.006763  28767.571260
   12196.0160  844557.060000  74963.422950  29086.693471
   12199.5790  850040.250000  75650.322351  29416.328205
   12202.8220  853998.870000  76217.711541  29705.471980
   12206.3900  857708.060000  76771.600390  29982.134427
   12209.9610  863257.750000  77492.047170  30349.335234
   12213.5340  865481.000000  77930.968979  30617.043216
   12217.1070  870752.690000  78636.423746  30995.281975
   12220.6860  873789.940000  79106.417544  31282.045399
   12224.2630  879192.690000  79838.838869  31697.302692
   12227.8450  883651.000000  80434.821713  32024.101408
   12231.4270  885612.810000  80823.264095  32268.400738
   12235.0130  891952.060000  81588.260626  32646.233420
   12238.9270  895662.940000  82141.729117  32942.577142
   12242.5160  899582.250000  82661.709411  33233.433053
   12246.1080  904155.120000  83250.233910  33515.829131
   12250.0290  908535.500000  83815.249215  33786.738130
   12253.6250  912987.370000  84379.716508  34035.144312
   12257.5500  918078.750000  84987.753637  34280.095214
   12261.1520  921827.690000  85479.306627  34503.567307
   12265.0810  926080.120000  85998.319347  34770.535725
   12269.0160  929363.060000  86421.930583  34986.066065
   12272.6230  934798.560000  87040.981740  35299.085681
   12276.5610  938330.560000  87496.544076  35533.627310
   12280.5020  944636.060000  88205.624571  35879.691234
   12284.4450  948130.060000  88647.221258  36128.278149
   12288.3910  952233.620000  89146.261086  36408.355822
   12292.3380  956708.620000  89707.903252  36742.997849
   12296.2890  960620.250000  90203.945661  37043.110002
   12300.2430  963739.310000  90656.608220  37330.792890
   12304.1980  969595.870000  91378.695074  37729.951775
   12308.1580  973932.000000  91957.313530  38064.648329
   12312.1190  978213.620000  92549.447712  38397.865478
   12316.0840  980991.810000  93015.124681  38694.613756
   12320.3800  986122.440000  93726.271179  39083.872950
   12324.3490  988828.620000  94220.900483  39395.635280
   12328.6520  993641.310000  94921.030346  39810.917607
   12332.6270  994464.560000  95235.756204  40036.753176
   12336.6040  1001184.200000  96129.936198  40526.082468
   12340.9150  1004317.500000  96705.616776  40889.932570
   12345.2290  1010052.200000  97509.839579  41333.313276
   12349.2150  1013728.600000  98114.532521  41688.199180
   12353.5360  1019552.400000  98948.744767  42112.612765
   12357.8590  1022008.700000  99443.464177  42437.541509
   12362.1870  1028825.500000  100374.695570  42928.993608
   12366.1830  1028971.800000  100629.386789  43124.946303
   12370.5150  1032270.700000  101219.681366  43479.454573
   12374.8510  1036939.100000  101910.347368  43878.426667
   12379.1890  1038295.900000  102272.629981  44123.966397
   12383.5320  1040467.400000  102701.458075  44386.040385
   12387.8760  1041910.300000  103065.646941  44623.567295
   12392.5600  1043944.700000  103466.490572  44876.676152
   12396.9110  1046177.700000  103898.713453  45156.255316
   12401.2650  1049997.100000  104471.539104  45491.390180
   12405.6210  1053936.100000  105063.833242  45836.031742
   12410.3170  1055631.600000  105431.720017  46096.228702
   12414.6820  1061443.600000  106190.021764  46523.904109
   12419.0490  1063397.100000  106567.850263  46791.102811
   12423.7550  1066485.300000  107090.123368  47130.797139
   12428.1290  1073149.800000  107957.036896  47629.072493
   12432.8420  1076737.900000  108556.338422  48020.811332
   12437.5600  1080179.500000  109128.218782  48416.100338
   12441.9420  1085981.600000  109936.569377  48886.889759
   12446.6660  1089357.300000  110542.401164  49316.192150
   12451.3950  1093849.400000  111259.834100  49776.048451
   12456.1250  1097617.000000  111893.748307  50199.418612
   12460.5220  1101248.300000  112530.087862  50622.266735
   12465.2610  1105994.900000  113305.030952  51102.681474
   12470.0030  1110085.100000  114009.406487  51554.585451
   12474.7480  1116815.900000  114965.371889  52138.037514
   12479.4980  1119068.100000  115505.779119  52517.984055
   12484.2500  1123037.900000  116203.702033  52961.450670
   12489.0070  1125891.100000  116829.205940  53369.466284
   12494.1070  1129190.900000  117458.095689  53784.952651
   12498.8710  1134500.300000  118313.581344  54296.000502
   12503.6400  1138962.100000  119096.571366  54768.564459
   12508.4110  1142981.400000  119802.001278  55211.611846
   12513.5270  1146371.300000  120487.961251  55680.190720
   12518.3070  1151965.600000  121357.529701  56205.334915
   12523.4320  1153050.500000  121796.463323  56550.933961
   12528.2200  1159500.900000  122742.041911  57120.120801
   12533.3520  1161870.900000  123305.970271  57519.747849
   12538.1460  1166093.300000  124022.547141  57979.962740
   12543.2880  1169212.300000  124665.550213  58431.659239
   12548.0900  1174944.800000  125542.135938  58978.905540
   12553.2390  1179316.800000  126286.175627  59497.647070
   12558.3930  1181436.300000  126821.702238  59878.899482
   12563.5510  1185678.300000  127556.741232  60386.676621
   12568.7130  1189087.800000  128216.307185  60853.980821
   12573.5360  1192567.900000  128819.366107  61280.792657
   12578.7070  1198286.400000  129757.953032  61897.136295
   12583.8810  1201972.500000  130435.028423  62389.989405
   12589.0610  1205590.100000  131130.686868  62903.401214
   12594.2440  1206910.100000  131578.776901  63296.297501
   12599.4320  1208863.900000  132096.441324  63717.737143
   12604.9720  1212569.000000  132803.491539  64242.644094
   12610.1680  1215851.600000  133503.142329  64764.111535
   12615.3690  1216955.800000  133940.245784  65165.075496
   12620.5740  1221335.500000  134760.915374  65728.591347
   12625.7840  1224614.800000  135474.119835  66246.631915
   12631.3480  1228994.500000  136303.720451  66853.144085
   12636.5660  1228890.800000  136667.948861  67201.223412
   12642.1370  1232779.500000  137469.579833  67786.770806
   12647.3640  1237477.800000  138351.777623  68386.877369
   12652.9450  1238304.500000  138814.482614  68809.497759
   12658.1840  1241015.900000  139482.702530  69306.645577
   12663.7740  1243961.600000  140207.350886  69839.259220
   12669.0200  1247601.000000  140965.585522  70391.448546
   12674.6200  1250832.900000  141739.367135  70957.168071
   12680.2280  1254980.300000  142530.520287  71554.346668
   12685.8370  1255169.100000  142946.235427  71929.062013
   12691.1020  1260720.500000  143936.562154  72605.353727
   12696.7220  1263069.500000  144552.266574  73119.094883
   12702.3490  1265646.900000  145252.506763  73663.376860
   12707.9790  1269950.900000  146088.341471  74284.217798
   12713.6130  1271648.400000  146634.528533  74775.499953
   12719.2550  1274670.300000  147355.323370  75345.359400
   12724.9010  1278090.800000  148089.627388  75928.733324
   12730.5510  1282979.900000  149020.472835  76598.638167
   12736.2080  1289159.400000  150106.742404  77387.027025
   12741.8680  1294101.400000  151041.530234  78083.934672
   12747.8890  1297113.000000  151769.861538  78695.392189
   12753.5620  1301184.100000  152636.759080  79360.381886
   12759.2370  1304606.600000  153415.023111  79962.831333
   12764.9190  1307204.800000  154077.911925  80536.846167
   12770.9620  1312001.400000  155055.332421  81297.408199
   12776.6540  1312097.600000  155450.189723  81737.439849
   12782.3510  1315516.300000  156237.532140  82361.993875
   12788.4100  1318610.400000  157036.416990  83032.087859
   12794.1190  1324213.100000  158108.842937  83828.695327
   12800.1890  1322383.400000  158355.735622  84197.825331
   12806.2660  1324924.000000  159087.024801  84835.397435
   12811.9890  1328907.300000  159951.925520  85537.553744
   12818.0770  1333028.000000  160871.405979  86262.262974
   12824.1700  1332267.400000  161240.264991  86704.430303
   12829.9100  1338946.100000  162464.755816  87577.173803
   12836.0160  1341630.500000  163235.663385  88236.388354
   12842.1270  1341829.300000  163698.138226  88731.158855
   12848.2440  1348125.600000  164890.144657  89612.468011
   12854.3660  1350756.500000  165683.623091  90302.268765
   12860.4950  1355759.900000  166710.602152  91107.587457
   12866.2690  1356771.800000  167285.089656  91641.422542
   12872.4080  1358228.100000  167891.050754  92212.764226
   12878.5550  1363601.000000  169002.460437  93111.590678
   12885.0690  1370215.500000  170281.560583  94106.037568

