# XDI/1.0
# Column.1: energy eV
# Column.2: i0
# Column.3: itrans
# Column.4: irefer
# Beamline.name: SSRL 2-3
# Beamline.notes: vert slits = 0.6mm
# Detector.I0: N2 15cm
# Detector.I1: Ar 30cm
# Detector.I2: Ar 15cm
# Element.edge: K
# Element.symbol: As
# Mono.d_spacing: 3.13550
# Mono.name: Si(111)
# Mono.notes: unfocused, detuned 75%, clockwise at E=12000eV
# Sample.formula: As2S3
# Sample.name: As2S3 arsenious sulfide (orpiment)
# Sample.prep: powder on tape (5 layers)
# Sample.reference: GaAs powder
# Sample.temperature: 10K
# Scan.start_time: 1997-04-19 16:23:01
# ///
#    Note: mono d_spacing is nominal!
#     exafs to K16, GaAs in IR
#     413  E XMU XMUR I0
#-------------
#   energy   i0   itrans  irefer
   11634.8900  567867.310000  90474.476407  37207.988479
   11644.9080  565388.310000  90453.487600  37431.993107
   11654.9440  562538.310000  90351.465614  37597.984244
   11664.9980  559508.310000  90222.458367  37775.981106
   11675.0700  556485.310000  90102.487572  37938.994935
   11684.8620  554023.310000  90045.469703  38139.987090
   11694.9690  549779.310000  89730.518807  38235.008284
   11705.0930  547365.310000  89676.470581  38426.987887
   11714.9370  545454.310000  89713.480652  38667.990687
   11725.0950  542822.310000  89615.476048  38846.991262
   11734.9740  540170.310000  89535.525432  39040.012383
   11744.8670  537182.310000  89347.524369  39171.010067
   11755.0790  534127.310000  89216.519514  39334.009203
   11765.0090  531947.310000  89171.496547  39535.999756
   11774.9540  529336.310000  89037.530918  39704.013430
   11784.9180  526484.310000  88872.479757  39853.990194
   11794.8960  523269.310000  88641.510581  39977.003033
   11804.8950  520373.310000  88447.526729  40100.012974
   11814.9090  517734.310000  88245.543470  40225.020223
   11824.9400  515002.310000  87987.467194  40314.982985
   11834.9890  512600.310000  87659.537481  40348.015796
   11845.0570  509338.310000  86865.457138  40099.980657
   11845.3610  509083.310000  86811.463162  40078.982793
   11845.9730  508694.310000  86734.459918  40043.980652
   11846.5830  509068.310000  86745.471165  40046.985884
   11846.8890  508808.310000  86676.460735  40022.982213
   11847.4990  508303.310000  86577.532013  39974.015732
   11848.1100  508309.310000  86513.471374  39948.988001
   11848.4150  508348.310000  86487.497181  39933.998837
   11849.0270  508366.310000  86440.496060  39915.996981
   11849.6370  507610.310000  86259.487245  39828.994294
   11849.9420  507342.310000  86192.480736  39794.990734
   11850.5560  507070.310000  86062.491048  39724.994441
   11850.8600  507066.310000  86034.534878  39717.014948
   11851.4710  506275.310000  85817.471151  39613.984990
   11852.0830  506011.310000  85689.476276  39550.989815
   11852.3900  505752.310000  85617.529282  39522.014411
   11853.0000  506678.310000  85660.456825  39522.981197
   11853.6100  505928.310000  85407.505163  39400.002486
   11853.9170  505757.310000  85330.498088  39362.997675
   11854.5290  506088.310000  85226.479666  39301.991023
   11855.1400  506408.310000  85137.473103  39247.987956
   11855.4460  505767.310000  84952.536113  39157.015503
   11856.0580  505574.310000  84724.518181  39032.008123
   11856.3630  505785.310000  84645.529086  38985.013019
   11856.9760  505763.310000  84407.460568  38822.982085
   11857.5880  505606.310000  84111.501966  38662.000676
   11857.8940  505048.310000  83901.466131  38552.983425
   11858.5040  505140.310000  83543.481452  38352.991588
   11859.1180  505195.310000  83198.482375  38133.993683
   11859.4240  505282.310000  82971.510574  38008.005279
   11860.0350  505008.310000  82410.502357  37675.001510
   11860.6470  504353.310000  81705.476740  37265.990742
   11860.9550  504731.310000  81476.466853  37115.984589
   11861.5660  504676.310000  80656.488465  36649.993591
   11861.8720  504037.310000  80061.516314  36314.009124
   11862.4840  503766.310000  78882.506816  35611.003953
   11863.0980  504284.310000  77524.515562  34802.005560
   11863.4030  504383.310000  76823.494760  34386.997550
   11864.0170  503808.310000  74624.499022  33109.000320
   11864.6280  503230.310000  71671.482729  31414.992216
   11864.9350  502791.310000  69831.499720  30375.999102
   11865.5470  502820.310000  65316.512109  27873.005334
   11865.8540  502755.310000  63210.510361  26736.003172
   11866.4670  501864.310000  56649.478645  23305.991754
   11867.0780  501909.310000  48612.487678  19320.995338
   11867.3880  502307.310000  44254.501881  17245.000988
   11867.9990  502475.310000  35337.492274  13154.997236
   11868.6110  502123.310000  26932.499763  9469.003996
   11868.9190  501630.310000  23928.504714  8191.003470
   11869.5320  502321.310000  18050.492590  5712.998257
   11870.1450  502362.310000  14988.505277  4360.002333
   11870.4510  501795.310000  14578.506515  4096.001638
   11871.0640  500994.310000  15789.493393  4270.998940
   11871.3710  501281.310000  16911.492840  4547.999384
   11871.9850  501467.310000  20683.502893  5567.000621
   11872.5990  500590.310000  24973.493991  6767.995937
   11872.9050  499900.310000  27048.503994  7373.000144
   11873.5180  499766.310000  30909.500901  8515.002512
   11874.1330  499735.310000  33738.498642  9381.996419
   11874.4390  499750.310000  34562.510867  9654.002476
   11875.0530  499750.310000  35772.505434  10103.001861
   11875.3580  499807.310000  35939.488318  10210.000122
   11875.9750  499907.310000  35725.499347  10281.001744
   11876.5880  500053.310000  35096.510611  10253.998353
   11876.8940  499677.310000  34786.504508  10238.002273
   11877.5090  499720.310000  34149.486931  10236.999529
   11878.1230  500031.310000  33828.502503  10309.004292
   11878.4300  500101.310000  33755.511169  10364.999503
   11879.0440  499430.310000  33749.515742  10500.008523
   11879.3510  499258.310000  33807.498166  10568.000527
   11879.9660  499825.310000  34092.508135  10749.998955
   11880.5800  499710.310000  34391.503773  10915.999429
   11880.8870  499273.310000  34518.508597  10986.998962
   11881.5000  498609.310000  34754.492464  11122.997849
   11882.1160  499073.310000  35065.509035  11268.001676
   11882.4240  498931.310000  35149.501320  11307.004840
   11883.0370  499026.310000  35379.509321  11397.999070
   11883.6520  498150.310000  35531.508236  11464.999341
   11883.9590  497877.310000  35621.510439  11496.006121
   11884.5740  497683.310000  35802.508151  11548.007959
   11884.8810  497286.310000  35845.496435  11558.001142
   11885.4960  496800.310000  35984.495122  11600.998298
   11886.1100  496373.310000  36099.509744  11634.005111
   11886.4190  496623.310000  36179.505466  11662.001380
   11887.0340  497336.310000  36379.501752  11734.995870
   11887.6480  496331.310000  36431.495716  11761.996135
   11887.9550  496355.310000  36480.505466  11787.999484
   11888.5720  496521.310000  36636.514354  11848.003863
   11888.8790  496995.310000  36736.491852  11883.995625
   11889.4930  496851.310000  36887.502435  11931.999280
   11890.1090  496536.310000  37037.488883  11987.993566
   11890.4170  496240.310000  37093.483429  11997.992035
   11891.0320  496777.310000  37328.490568  12066.992798
   11891.6480  496201.310000  37479.484802  12113.998822
   11891.9560  496115.310000  37574.490633  12136.996862
   11892.5700  496247.310000  37798.499699  12207.999228
   11892.8790  496864.310000  37927.482101  12244.991187
   11893.4950  496163.310000  38081.481975  12299.998329
   11894.1090  495445.310000  38238.504315  12357.003339
   11894.4190  495318.310000  38332.481067  12403.995102
   11895.0350  495334.310000  38536.502475  12497.003660
   11895.6490  495494.060000  38763.239649  12607.758341
   11896.2660  494970.340000  38910.527412  12699.045607
   11896.8810  495261.120000  39130.301396  12825.843240
   11897.4980  495016.440000  39303.555053  12917.151141
   11898.4220  495365.250000  39609.356645  13050.994911
   11899.0380  495018.590000  39746.640326  13112.347158
   11899.6550  495108.440000  39910.434631  13159.222048
   11900.5800  495298.810000  40139.754891  13212.617404
   11901.1950  496169.720000  40327.557557  13258.529029
   11902.1210  495976.090000  40453.886478  13278.971847
   11903.0450  495971.030000  40564.711662  13307.922276
   11903.6620  496071.470000  40617.053245  13326.399719
   11904.5870  496666.410000  40697.904046  13363.386192
   11905.5130  496581.870000  40701.272778  13376.900340
   11906.4380  497205.870000  40710.138543  13403.946328
   11907.3630  498253.370000  40725.511845  13417.498627
   11908.2910  498483.370000  40632.377687  13406.561198
   11909.2150  499870.910000  40617.738704  13417.138538
   11910.1430  499779.970000  40456.646403  13369.258660
   11911.0680  500314.530000  40304.050019  13314.890037
   11912.3030  500991.590000  40033.968831  13212.037086
   11913.2290  501456.220000  39837.365578  13134.696353
   11914.1560  502565.310000  39645.307841  13059.888700
   11915.3920  503234.940000  39315.747509  12934.603198
   11916.3180  503687.090000  39070.676426  12859.826433
   11917.5560  504929.750000  38782.119807  12778.566953
   11918.7930  505231.940000  38476.074669  12726.833150
   11919.7190  507452.620000  38393.545017  12753.609722
   11920.9570  507672.840000  38136.515086  12719.919438
   11922.1930  508802.560000  37990.990650  12723.733684
   11923.4320  510249.810000  37910.966710  12730.076594
   11924.6690  510815.560000  37819.452464  12715.943321
   11925.9080  511745.840000  37782.464601  12720.324843
   11927.1460  513060.620000  37826.995176  12747.230162
   11928.3840  514315.940000  37903.018241  12779.645960
   11929.6230  515392.750000  37994.531116  12805.582791
   11930.8610  517621.090000  38180.560097  12862.041935
   11932.4110  518613.970000  38328.080913  12877.013345
   11933.6510  519081.310000  38472.147486  12899.525627
   11934.8910  520926.220000  38756.691294  12955.526054
   11936.4410  522347.620000  39104.764154  13023.068761
   11937.9920  524326.560000  39526.356253  13126.140452
   11939.2320  525440.000000  39827.435414  13212.706852
   11940.7840  526280.940000  40225.019458  13348.809123
   11942.3360  526974.370000  40595.081485  13490.407989
   11943.5770  527139.370000  40877.711883  13608.545932
   11945.1300  529808.870000  41431.825561  13826.199667
   11946.6840  533681.870000  42065.415241  14055.361331
   11948.2370  536141.440000  42571.542212  14251.055966
   11949.7910  537760.500000  42981.177778  14422.266453
   11951.3460  539205.060000  43335.317267  14559.998559
   11952.8990  541308.120000  43706.973001  14714.253570
   11954.7670  543515.750000  44057.151331  14863.026483
   11956.3220  545545.810000  44325.794656  14999.303696
   11957.8780  547481.440000  44541.955337  15110.117636
   11959.7450  548261.620000  44632.646778  15166.447426
   11961.3010  550885.250000  44837.844662  15245.304130
   11963.1710  553117.440000  44971.517632  15278.664038
   11964.7290  554759.120000  45050.721592  15304.547424
   11966.5980  556845.370000  45121.443050  15321.952273
   11968.4700  560013.060000  45265.678888  15404.876342
   11970.0270  561804.310000  45299.390897  15467.322712
   11971.9000  563932.060000  45334.656460  15564.299269
   11973.7710  565688.370000  45328.380777  15660.777585
   11975.6440  568441.120000  45400.618896  15775.778178
   11977.5190  570502.440000  45406.371937  15831.291343
   11979.3920  573269.250000  45474.671546  15888.339917
   11981.2670  574974.620000  45460.412882  15897.898023
   11983.1410  578581.500000  45593.694037  15948.972679
   11985.0170  579340.870000  45524.517468  15933.583097
   11987.2060  580636.750000  45488.809296  15908.703449
   11989.0830  582915.120000  45559.610254  15896.335071
   11991.2730  587340.060000  45808.926353  15929.503736
   11993.1510  590689.500000  46019.742934  15954.174173
   11995.3440  592389.440000  46138.062331  15922.373467
   11997.2250  595043.940000  46370.906689  15951.091373
   11999.4170  597989.870000  46669.218473  16025.317478
   12001.2990  600385.370000  46968.103969  16120.080524
   12003.4940  603069.440000  47349.456804  16269.356150
   12005.6880  606271.940000  47835.289027  16474.135924
   12007.8860  609043.000000  48305.666507  16683.444373
   12010.0830  610701.560000  48748.547136  16871.290573
   12012.2820  611754.620000  49134.933303  17050.631726
   12014.4810  616145.250000  49814.830016  17346.499553
   12016.6820  619476.370000  50413.276181  17608.901772
   12018.8810  623301.000000  51036.167506  17862.821616
   12021.0830  626235.120000  51551.581639  18103.239346
   12023.6020  628691.810000  52017.498335  18335.190078
   12025.8040  631672.000000  52445.958214  18550.658222
   12028.0080  635871.690000  52898.913384  18758.646592
   12030.5270  638228.870000  53177.371038  18911.173719
   12032.7330  642187.620000  53574.301527  19094.178614
   12035.2570  644188.870000  53757.756281  19205.716316
   12037.7800  646774.620000  53968.734471  19335.792027
   12039.9890  650944.870000  54311.226414  19492.386502
   12042.5140  653459.690000  54478.212327  19598.476780
   12045.0400  657088.000000  54724.743246  19723.127889
   12047.5660  659353.810000  54845.726964  19811.256369
   12050.0960  662549.120000  55048.229364  19924.909816
   12052.6250  666460.000000  55305.265601  20040.097126
   12055.1540  668574.370000  55401.775358  20073.803156
   12057.6880  670141.250000  55459.804275  20061.017640
   12060.2210  675756.690000  55871.370047  20191.769789
   12062.7540  680724.620000  56233.397865  20335.006285
   12065.2880  684663.060000  56514.985554  20481.803013
   12068.1420  687108.000000  56691.057662  20583.102766
   12070.6780  691215.440000  57009.650197  20721.929905
   12073.2180  694170.440000  57278.739767  20814.264005
   12076.0730  698453.940000  57646.309855  20934.117310
   12078.6150  699855.940000  57832.419756  20971.502952
   12081.4730  705166.500000  58365.032103  21138.392675
   12084.3350  706898.560000  58614.152409  21214.802647
   12086.8780  711483.120000  59110.743484  21392.741724
   12089.7420  715330.190000  59586.869553  21571.181635
   12092.6060  720829.810000  60206.544695  21845.174758
   12095.4740  723834.870000  60655.680191  22087.664522
   12098.3400  726946.560000  61121.333800  22331.672611
   12101.2090  729863.690000  61578.500433  22583.211826
   12104.0800  734136.310000  62151.174762  22873.264051
   12106.9520  737897.500000  62702.349941  23144.834550
   12109.8250  740388.190000  63142.976907  23380.904208
   12112.6970  744838.440000  63743.188789  23682.520297
   12115.8940  748917.120000  64331.880893  24002.647174
   12118.7710  754973.370000  65048.131280  24360.312645
   12121.6500  758847.190000  65573.813147  24638.467138
   12124.8500  762259.440000  66032.032829  24904.152837
   12127.7310  763328.250000  66262.766519  25059.360953
   12130.9360  769712.560000  66946.992293  25385.081183
   12133.8190  774465.370000  67446.786994  25614.345001
   12137.0270  777214.690000  67773.998505  25765.096277
   12140.2350  781919.560000  68260.745903  25956.373095
   12143.4450  786727.940000  68715.067350  26109.198786
   12146.3370  789826.810000  68996.839112  26214.518371
   12149.5510  793736.250000  69360.131420  26354.365298
   12152.7650  798494.120000  69778.895256  26518.714832
   12155.9810  799832.560000  69895.160048  26579.581434
   12159.2000  805454.560000  70387.999632  26789.994784
   12162.4210  807675.000000  70593.336055  26894.923461
   12165.6420  811262.000000  70921.175770  27058.366631
   12169.1890  814208.500000  71227.464095  27234.310007
   12172.4150  818286.500000  71655.328487  27440.801724
   12175.6430  823993.060000  72228.673543  27733.797826
   12178.8720  826304.060000  72521.481691  27886.296887
   12182.4260  831402.690000  73101.892990  28147.348613
   12185.6580  835276.750000  73581.755447  28368.903755
   12189.2180  839617.310000  74143.114462  28637.974153
   12192.4520  843796.440000  74679.026328  28915.577990
   12196.0160  849386.060000  75379.383268  29251.679948
   12199.5790  854271.250000  76029.298023  29582.319430
   12202.8220  857926.870000  76560.697894  29855.466720
   12206.3900  863759.060000  77313.598929  30221.133493
   12209.9610  868769.750000  77993.081999  30563.348525
   12213.5340  873527.000000  78649.953575  30919.035791
   12217.1070  877334.690000  79234.400172  31241.272280
   12220.6860  881892.940000  79871.385955  31617.035247
   12224.2630  886607.690000  80508.808102  31975.292521
   12227.8450  890027.000000  81040.805493  32289.096363
   12231.4270  892651.810000  81453.279192  32532.405811
   12235.0130  896405.060000  82002.225465  32828.219191
   12238.9270  900655.940000  82579.735714  33149.579112
   12242.5160  903749.250000  83045.690443  33405.426057
   12246.1080  909947.120000  83759.239577  33753.829850
   12250.0290  914595.500000  84386.200836  34031.718644
   12253.6250  915754.370000  84640.779164  34157.168416
   12257.5500  922684.750000  85427.804452  34490.113814
   12261.1520  927393.690000  85998.354983  34740.587359
   12265.0810  930587.120000  86428.345834  34957.544076
   12269.0160  935114.060000  86978.895708  35240.049691
   12272.6230  941917.560000  87728.933094  35597.067285
   12276.5610  944460.560000  88086.556577  35807.631050
   12280.5020  949583.060000  88680.587001  36092.677450
   12284.4450  955846.060000  89374.184364  36460.262722
   12288.3910  959755.620000  89869.236817  36728.348279
   12292.3380  962342.620000  90256.854196  36985.977011
   12296.2890  968638.250000  90986.961786  37377.118754
   12300.2430  972987.310000  91543.570563  37715.778697
   12304.1980  974964.870000  91901.691915  37961.949897
   12308.1580  979738.000000  92518.274668  38310.633280
   12312.1190  984396.620000  93163.487969  38675.881355
   12316.0840  988865.810000  93789.099563  39032.605680
   12320.3800  993042.440000  94409.282729  39411.876398
   12324.3490  996281.620000  94943.878900  39728.625318
   12328.6520  1001663.300000  95708.029449  40153.917098
   12332.6270  1007013.600000  96449.774185  40577.758573
   12336.6040  1012153.200000  97198.883210  41000.059659
   12340.9150  1017779.500000  98011.573876  41461.914064
   12345.2290  1021481.300000  98617.833035  41830.310473
   12349.2150  1025810.600000  99295.515440  42203.189903
   12353.5360  1033057.400000  100271.753372  42715.614557
   12357.8590  1036398.700000  100875.410336  43065.520750
   12362.1870  1040590.500000  101542.620776  43443.959469
   12366.1830  1046253.800000  102344.364939  43883.932632
   12370.5150  1050244.600000  102979.647169  44252.442532
   12374.8510  1054258.000000  103623.431904  44639.462665
   12379.1890  1058264.000000  104243.666799  44993.980255
   12383.5320  1062863.400000  104923.432079  45366.029036
   12387.8760  1066744.300000  105522.645453  45702.567536
   12392.5600  1069905.800000  106068.476069  46020.671970
   12396.9110  1075305.600000  106792.764834  46425.277251
   12401.2650  1080074.100000  107465.506776  46827.377859
   12405.6210  1084948.100000  108154.896962  47218.059254
   12410.3170  1087839.600000  108641.665058  47531.202498
   12414.6820  1092751.600000  109342.941774  47933.867377
   12419.0490  1097506.100000  109994.867215  48307.112330
   12423.7550  1101553.300000  110609.120955  48694.795395
   12428.1290  1104248.800000  111116.984835  49045.050014
   12432.8420  1107387.900000  111658.295853  49418.793044
   12437.5600  1112744.500000  112422.238035  49891.111726
   12441.9420  1117107.600000  113106.530669  50309.872182
   12446.6660  1122151.300000  113894.425304  50816.201224
   12451.3950  1126965.400000  114621.777021  51287.025840
   12456.1250  1128054.000000  115004.735210  51598.412332
   12460.5220  1133178.300000  115784.142661  52087.292781
   12465.2610  1136491.900000  116427.005700  52531.674744
   12470.0030  1144281.100000  117502.411707  53153.585288
   12474.7480  1145703.900000  117965.296874  53510.001852
   12479.4980  1149847.100000  118682.784334  53967.988002
   12484.2500  1154394.900000  119448.771558  54452.479720
   12489.0070  1159511.100000  120279.202741  54964.467431
   12494.1070  1161996.900000  120870.082400  55356.947439
   12498.8710  1164399.300000  121442.586342  55739.001630
   12503.6400  1171385.100000  122460.578956  56320.566689
   12508.4110  1175975.400000  123251.034928  56810.627374
   12513.5270  1177224.300000  123719.964187  57171.187609
   12518.3070  1182983.600000  124616.497443  57726.324549
   12523.4320  1186985.500000  125355.434574  58211.921985
   12528.2200  1190567.900000  126022.025743  58659.116330
   12533.3520  1193863.900000  126694.959154  59119.741304
   12538.1460  1199227.300000  127549.523872  59652.950551
   12543.2880  1201704.300000  128117.534154  60071.647701
   12548.0900  1205750.800000  128834.124769  60531.895377
   12553.2390  1207986.800000  129361.194776  60927.653449
   12558.3930  1211616.300000  130045.648659  61417.875969
   12563.5510  1213525.300000  130522.793420  61806.700056
   12568.7130  1218862.800000  131381.272344  62376.959716
   12573.5360  1222919.900000  132117.362691  62858.793570
   12578.7070  1227787.400000  132934.026883  63433.167205
   12583.8810  1230843.500000  133567.101656  63889.024476
   12589.0610  1235746.100000  134409.645981  64470.380173
   12594.2440  1238862.100000  135039.803537  64975.305089
   12599.4320  1242718.900000  135770.358692  65496.697369
   12604.9720  1244759.000000  136338.561611  65988.680244
   12610.1680  1249315.600000  137143.134850  66562.114235
   12615.3690  1251677.800000  137752.303511  67039.102617
   12620.5740  1256006.500000  138581.904930  67606.587206
   12625.7840  1261682.800000  139552.052022  68276.597454
   12631.3480  1264412.500000  140246.679200  68797.118817
   12636.5660  1267778.800000  140954.856413  69348.177857
   12642.1370  1270722.500000  141663.555003  69876.759744
   12647.3640  1273327.800000  142334.805468  70374.893094
   12652.9450  1277832.500000  143240.432164  71000.474647
   12658.1840  1280967.900000  143939.668500  71528.633855
   12663.7740  1282359.600000  144511.356675  72003.267315
   12669.0200  1286732.000000  145366.617754  72599.464786
   12674.6200  1291508.900000  146318.317277  73269.139489
   12680.2280  1294810.300000  147068.501806  73848.336026
   12685.8370  1294998.100000  147491.346602  74234.121796
   12691.1020  1301255.500000  148553.601596  74947.370956
   12696.7220  1304569.500000  149304.281348  75541.100096
   12702.3490  1305480.900000  149792.613026  75988.434998
   12707.9790  1308327.900000  150520.334599  76558.211696
   12713.6130  1311901.400000  151271.587537  77168.528673
   12719.2550  1316079.300000  152148.401229  77822.396961
   12724.9010  1316669.800000  152564.727554  78231.787050
   12730.5510  1320276.900000  153369.457630  78868.630742
   12736.2080  1323559.400000  154128.843952  79464.080477
   12741.8680  1326953.400000  154884.537026  80093.941692
   12747.8890  1329223.000000  155560.829243  80681.373741
   12753.5620  1331234.100000  156160.712569  81206.353219
   12759.2370  1335937.600000  157103.000820  81920.817986
   12764.9190  1337500.800000  157664.928729  82443.851759
   12770.9620  1340526.400000  158447.237526  83102.364209
   12776.6540  1344378.600000  159295.214847  83769.449606
   12782.3510  1348580.300000  160194.497836  84456.971230
   12788.4100  1350489.400000  160841.325685  85058.038065
   12794.1190  1352656.100000  161501.821293  85648.689153
   12800.1890  1352996.400000  162013.710994  86163.811334
   12806.2660  1354339.000000  162619.121957  86732.441199
   12811.9890  1355560.300000  163161.931651  87256.560775
   12818.0770  1359816.000000  164120.460831  87999.292569
   12824.1700  1360283.400000  164634.248779  88527.420428
   12829.9100  1363405.100000  165427.759258  89187.179312
   12836.0160  1363580.500000  165902.661486  89670.392291
   12842.1270  1364649.300000  166491.082850  90250.131252
   12848.2440  1363706.600000  166817.051618  90676.417031
   12854.3660  1366439.500000  167611.488142  91375.193041
   12860.4950  1368491.900000  168294.531749  92017.549066
   12866.2690  1361340.800000  167860.012886  92013.377623
   12872.4080  1363750.100000  168619.991228  92682.725843
   12878.5550  1364925.000000  169191.424126  93277.569011
   12885.0690  1364312.500000  169579.512604  93750.004958

