# XDI/1.0
# Column.1: energy eV
# Column.2: i0
# Column.3: itrans
# Column.4: irefer
# Beamline.name: SSRL 4-1
# Detector.I0: N2 15cm
# Detector.I1: N2 30cm
# Detector.I2: Ar 15cm
# Element.edge: K
# Element.symbol: As
# Mono.d_spacing: 3.13550
# Mono.name: Si(111)
# Mono.notes: unfocused, detuned 40%,counter clockwise at E=12000eV
# Sample.formula: GaAs
# Sample.name: GaAs gallium arsenide
# Sample.prep: powder
# Sample.reference: none
# Sample.temperature: room temperature
# Scan.start_time: 1997-01-19 14:12:16
# ///
#    Note: mono d_spacing is nominal!
#     exafs to K15
#     same as calibration scan used in as001c_1.xmu,
#     similar scans can be found in many other scans
#     320  E XMUR XMU I0
#-------------
#   energy   i0   itrans  irefer
   11649.9940  179062.340000  207601.486852  325986.938093
   11660.0050  177192.340000  206001.635740  324266.921768
   11669.9970  178040.340000  207532.271697  327516.931780
   11680.0060  177121.340000  207035.056588  327523.934361
   11689.9960  176917.340000  207352.079970  328854.932161
   11700.0050  176478.340000  207364.569463  329726.904360
   11709.9940  175015.340000  206214.528465  328693.934408
   11720.0020  175232.340000  207020.919906  330809.953048
   11730.0030  174715.340000  206956.830034  331530.934149
   11739.9950  174755.340000  207530.421505  333267.922510
   11749.9960  174308.340000  207548.344882  334135.934573
   11760.0000  174268.340000  208054.693609  335747.904851
   11769.9970  173368.340000  207547.797814  335698.945927
   11779.9990  172148.340000  206601.712783  334995.918103
   11789.9960  172098.340000  207061.956991  336515.919697
   11799.9980  171784.340000  207224.107570  337487.932087
   11810.0030  171212.340000  207024.478635  337853.929405
   11820.0020  170442.340000  206560.729284  337675.899318
   11829.9940  169899.340000  206280.943702  337681.939153
   11840.0030  169217.340000  205708.048691  336768.928879
   11850.0040  168960.340000  205196.326856  334877.941877
   11850.7620  168767.340000  204880.171718  334185.918401
   11851.5200  167889.340000  203764.511546  332085.933708
   11852.2780  168602.340000  204530.994117  333151.927434
   11853.0360  169457.340000  205458.982141  334395.931218
   11853.7820  168118.340000  203721.636728  331186.955507
   11854.5410  168709.340000  204291.715956  331751.917308
   11855.2990  168321.340000  203645.103590  330303.916769
   11856.0580  167594.340000  202554.222593  327967.925861
   11856.8150  168081.340000  202892.367465  327961.928139
   11857.5750  167596.340000  202052.092961  325971.922416
   11858.3340  167718.340000  201829.468359  324736.902855
   11859.0930  168226.340000  201949.695572  323923.939811
   11859.8530  167494.340000  200534.792355  320545.925584
   11860.6110  167509.340000  199767.584019  317822.932259
   11861.3570  167440.340000  198629.863166  314167.947860
   11862.1180  167890.340000  197912.878875  311021.931250
   11862.8770  167833.340000  195895.129646  305039.923027
   11863.6370  167567.340000  192267.647810  295330.922947
   11864.3960  167877.340000  188081.032460  284049.918957
   11865.1550  167960.340000  181315.921077  267022.928730
   11865.9030  167363.340000  171345.039375  242435.936879
   11866.6630  167393.340000  161936.937105  216630.943033
   11867.4230  167780.340000  152771.171980  188946.951143
   11868.1830  167879.340000  142069.547251  156328.946259
   11868.9430  167247.340000  131590.956187  126589.952769
   11869.7030  168294.340000  126354.376382  108525.956004
   11870.4510  168078.340000  123365.880764  95150.950220
   11871.2130  167908.340000  123414.021974  89094.948244
   11871.9730  167064.340000  123674.424983  88784.945918
   11872.7210  167263.340000  124881.421200  94140.943353
   11873.4820  167743.340000  126703.229092  103863.950360
   11874.2430  167382.340000  128100.672241  112716.944099
   11875.0040  167159.340000  129896.189515  121052.945893
   11875.7540  166906.340000  131878.549138  128924.950600
   11876.5150  166781.340000  133685.123902  135280.953534
   11877.2750  167107.340000  135808.575403  140852.944656
   11878.0250  167456.340000  137953.277718  145159.946033
   11878.7860  166608.340000  138870.908878  146184.943811
   11879.5480  166097.340000  139564.729172  145727.947771
   11880.3090  166590.340000  140932.202986  145178.946433
   11881.0600  166485.340000  141570.108031  143848.955293
   11881.8200  166363.340000  141946.651254  142984.955955
   11882.5820  167033.340000  142856.129044  143417.951225
   11883.3330  166587.340000  142596.196690  143779.942904
   11884.0950  166046.340000  142104.415247  144468.942842
   11884.8450  166934.340000  142823.865523  146619.945114
   11885.6070  167160.340000  143031.211911  148301.951999
   11886.3570  165962.340000  142061.717740  148496.952352
   11887.1200  165579.340000  141811.253924  149389.943181
   11887.8820  166466.340000  142641.762081  151542.956622
   11888.6340  167113.340000  143206.832281  153430.954014
   11889.3960  166536.340000  142657.113591  154091.953345
   11890.1460  166337.340000  142391.640795  155298.950923
   11890.9100  166634.340000  142562.532917  156950.942904
   11891.6730  165859.340000  141848.825274  157390.940910
   11892.4230  166471.340000  142379.262872  159258.945008
   11893.1880  166840.340000  142831.827569  161058.943585
   11893.9380  166748.340000  143028.059276  162220.955654
   11894.7010  165479.340000  142295.666759  162191.956946
   11895.4520  166283.340000  143449.448917  164013.952559
   11896.2160  166277.340000  143889.395428  164753.961257
   11896.9680  165623.340000  143657.152314  164637.942336
   11897.7310  166182.340000  144397.659699  165605.957949
   11898.4840  166049.340000  144333.583575  165698.947589
   11899.2480  166574.340000  144722.786636  166331.950972
   11900.0000  165944.340000  144007.017485  165754.956307
   11901.2820  165590.340000  143400.699615  165525.954437
   11902.5780  166518.330000  144025.907048  166826.957646
   11903.8960  166048.300000  143633.068177  166950.942185
   11905.2290  166510.250000  144188.095950  168145.936015
   11906.5740  165301.190000  143343.794728  167482.924676
   11907.9560  166698.120000  144696.553043  169209.909450
   11909.3520  165960.050000  144104.927402  168274.890764
   11910.7590  165791.940000  143889.051762  167293.880402
   11912.1910  166313.840000  144176.696420  166660.866113
   11913.6380  166307.720000  143913.727759  165295.834893
   11915.1070  165518.580000  143073.080817  163390.812595
   11916.5920  166188.440000  143707.060465  163550.796697
   11918.1010  166874.280000  144779.937118  164281.761986
   11919.6330  166581.110000  145196.041257  164363.713581
   11921.1800  166747.920000  145981.720374  164776.697853
   11922.7390  166151.730000  145984.975229  164000.652590
   11924.3230  167557.520000  147487.274178  164843.624679
   11925.9330  167263.300000  147382.613392  163840.585839
   11927.5550  167835.060000  147939.663476  163725.527247
   11929.1890  167540.810000  147624.083084  162879.477159
   11930.8510  168632.560000  148357.358342  163337.438653
   11932.5360  168167.280000  147563.368179  162138.388131
   11934.2330  169026.000000  147789.054445  162177.322386
   11935.9580  169827.700000  147903.922945  162207.284888
   11937.6950  169606.390000  147177.125902  161391.214220
   11939.4430  170929.060000  148027.980988  162234.158852
   11941.2190  170975.730000  148052.629696  162069.104717
   11943.0200  171611.390000  148833.965652  162708.033660
   11944.8330  171413.020000  148923.665999  162754.977761
   11946.6590  171935.640000  149618.485000  163678.912929
   11948.5110  172620.270000  150456.260030  165035.828197
   11950.3870  172055.860000  150201.104304  165391.766418
   11952.2780  172434.450000  150725.072330  166658.692607
   11954.1930  173243.030000  151679.767607  168233.602793
   11956.1100  173733.590000  152420.924537  169507.527174
   11958.0630  174509.140000  153485.287955  171110.426740
   11960.0310  174692.670000  153874.149707  172010.351582
   11962.0120  175792.200000  154839.286183  173532.259473
   11964.0190  175878.720000  154783.546477  173871.195023
   11966.0500  176348.220000  155076.022290  174559.081988
   11968.0950  176540.700000  155315.020494  175190.007961
   11970.1520  177847.170000  156915.679211  177354.878037
   11972.2360  178878.640000  158616.428302  179617.804847
   11974.3340  179294.080000  159929.990928  181419.705663
   11976.4560  180489.520000  161797.251126  183850.589681
   11978.5930  180659.940000  162436.130204  184989.483887
   11980.7540  182150.360000  163983.497842  187219.382906
   11982.9290  183024.750000  164833.486167  188725.275647
   11985.1300  183647.140000  165359.865012  189789.165172
   11987.3450  183604.520000  165083.580911  189844.040691
   11989.5850  184140.870000  165117.602512  190136.904467
   11991.8370  184918.220000  165201.521863  190437.788807
   11994.1040  185566.550000  165080.771409  190445.693001
   11996.3960  186053.870000  164770.707420  190172.557133
   11998.7150  188101.190000  165920.285089  191444.445118
   12001.0470  187631.480000  165149.995788  190401.276441
   12003.3930  189701.770000  166956.935419  192243.175060
   12005.7650  190032.030000  167483.834624  192554.039094
   12008.1490  191327.300000  168977.213429  193956.920292
   12010.5610  192090.550000  169985.897111  194771.772453
   12012.9850  192859.780000  171054.256621  195724.624906
   12015.4370  194472.000000  172931.522740  197695.485305
   12017.9000  194501.200000  173406.341069  198074.323744
   12020.3790  196205.410000  175350.498708  200141.180628
   12022.8830  196082.580000  175702.214156  200441.031655
   12025.4010  197523.750000  177510.316841  202451.880323
   12027.9450  199533.910000  179786.726716  205049.742659
   12030.5020  199113.050000  179817.375244  205070.567964
   12033.0870  200472.190000  181421.403960  206907.415250
   12035.6860  202512.310000  183597.267435  209537.243079
   12038.3100  203778.410000  185078.351675  211463.109051
   12040.9480  204407.500000  186005.862199  212809.923723
   12043.6010  205594.590000  187348.867429  214744.742800
   12046.2780  206720.660000  188663.667603  216614.590396
   12048.9710  208520.720000  190609.698276  219295.398559
   12051.6880  209379.750000  191646.273797  220905.243889
   12054.4210  209225.780000  191471.159847  221145.044447
   12057.1690  210831.800000  192630.698999  222871.880440
   12059.9400  212831.810000  194113.123390  224902.685415
   12062.7290  213583.800000  194690.969855  225824.496067
   12065.5430  214720.780000  195887.811768  227417.311506
   12068.3690  216363.750000  197653.705841  229646.125448
   12071.2110  217071.700000  198449.107867  230695.943991
   12074.0800  218492.640000  199558.606430  232218.737089
   12076.9770  219858.580000  200438.757553  233499.550365
   12079.8720  220552.500000  200653.630809  234093.355701
   12082.7960  221833.390000  201474.929565  235397.142211
   12085.7460  223846.280000  203038.731473  237549.935540
   12088.7120  224986.170000  203959.220357  238940.740538
   12091.6910  226458.030000  205400.053865  240898.542588
   12094.6960  226221.890000  205666.143560  241421.312482
   12097.7040  228665.720000  208491.138494  244969.114445
   12100.7500  230165.550000  210472.032616  247565.893420
   12103.8120  231451.370000  212295.220747  249998.659704
   12106.8890  232370.170000  213654.710686  251929.455658
   12109.9780  234258.970000  215886.460318  254952.237274
   12113.0960  235118.730000  217281.185533  256984.995674
   12116.2390  236446.500000  219188.394023  259623.786126
   12119.3870  238217.250000  221546.478444  262702.575981
   12122.5600  239990.000000  223844.146650  265694.309575
   12125.7460  241094.720000  225496.125127  267877.095200
   12128.9620  242479.440000  227339.404147  270209.848362
   12132.1920  243087.140000  228217.673052  271396.616336
   12135.4490  245147.830000  230289.323426  273934.368407
   12138.7210  247156.500000  232138.252291  276129.127405
   12142.0080  247777.160000  232452.886048  276452.872623
   12145.3090  249609.810000  233935.114538  278139.611872
   12148.6380  251610.450000  235619.168340  280042.368598
   12151.9800  253771.080000  237503.573766  282257.131917
   12155.3510  255518.690000  239063.227619  284113.886805
   12158.7370  256744.300000  240192.748071  285577.634829
   12162.1370  256837.870000  240367.131665  286101.336014
   12165.5530  258489.450000  242098.464314  288508.088150
   12168.9950  262168.000000  245778.727547  293366.842959
   12172.4530  262820.560000  246680.650700  294980.569465
   12175.9390  264359.090000  248486.127324  297713.322462
   12179.4410  266504.620000  250750.662595  301048.014696
   12182.9560  266539.120000  250917.516243  301879.751602
   12186.4990  269742.620000  254065.857549  306235.469774
   12190.0450  272348.120000  256762.871743  310041.165601
   12193.6320  274131.590000  258888.246160  313103.900701
   12197.2210  275376.060000  260522.016624  315485.611140
   12200.8380  277366.500000  262797.264197  318587.345100
   12204.4710  277884.940000  263675.566628  319959.054566
   12208.1160  281031.340000  267081.093528  324372.787590
   12211.7930  282983.780000  269506.578889  327534.470022
   12215.4830  283176.160000  270342.130674  328736.200677
   12219.1890  284970.560000  272786.777900  331907.911914
   12222.9230  287182.910000  275611.082290  335601.602574
   12226.6720  288764.280000  277793.706467  338494.273578
   12230.4380  290801.620000  280278.078121  341835.985163
   12234.2180  292357.970000  282245.470789  344610.693793
   12238.0250  295236.280000  285452.555501  349008.380533
   12241.8500  296852.590000  287405.696893  351911.067885
   12245.6890  297189.870000  288002.285962  353222.728707
   12249.5580  299138.160000  289899.015594  356201.449520
   12253.4430  301817.440000  292355.085957  359860.123919
   12257.3410  303000.690000  293397.587389  361745.831659
   12261.2570  303797.940000  294174.553152  363344.459790
   12265.2010  306697.190000  297068.329807  367541.147742
   12269.1580  308524.410000  299089.202498  370533.798654
   12273.1360  311363.590000  302045.811323  374629.485545
   12277.1260  312847.780000  303668.791665  377040.159771
   12281.1460  315690.970000  306639.196904  381092.833166
   12285.1820  316998.160000  308262.455833  383380.492657
   12289.2320  317593.310000  309301.715144  384902.141832
   12293.3130  319890.440000  312099.548358  388578.808365
   12297.3970  323040.560000  315699.656686  393276.453306
   12301.5080  324595.690000  317757.459918  396023.117514
   12305.6500  326093.810000  319751.704352  398762.766827
   12309.7950  328920.910000  323023.425942  403126.434797
   12313.9700  330148.970000  324766.293535  405673.044820
   12318.1580  333643.030000  328767.823824  411045.699362
   12322.3640  333044.090000  328757.518640  411534.375472
   12326.5860  336345.120000  332552.374728  416879.981269
   12330.8240  338324.160000  335136.142952  420711.676919
   12335.0920  340426.190000  337842.734829  424832.301196
   12339.3770  342828.190000  340859.753587  429302.892483
   12343.6890  344049.190000  342630.748855  432314.543536
   12348.0070  346067.160000  345058.234441  436132.151968
   12352.3530  348531.120000  347992.668910  440543.817756
   12356.7020  350692.090000  351076.368545  444808.420617
   12361.0800  352828.030000  353214.363650  448365.045844
   12365.4890  354248.940000  354637.308964  451093.665660
   12369.9020  356049.870000  356441.202832  454167.284080
   12374.3440  358282.780000  359777.045980  458737.899941
   12378.8030  360830.660000  362704.613616  462954.495040
   12383.2780  363920.530000  366098.338824  467765.116741
   12387.7700  365505.410000  368014.171788  470627.705710
   12392.2790  365219.250000  368029.876927  471134.361624
   12396.8160  368830.090000  372019.955738  476739.918184
   12401.3710  369749.910000  373301.744160  478896.528387
   12405.9430  373902.720000  377915.311410  485351.138861
   12410.5320  373036.530000  377466.144229  485390.722742
   12415.1390  378216.310000  383168.530811  493403.313947
   12419.7620  380071.090000  385576.363998  497253.901656
   12424.4150  382666.870000  388823.440286  502195.486672
   12429.0850  384158.620000  390944.411661  505754.098698
   12433.7720  385271.340000  392693.144965  508870.673790
   12438.4760  389422.090000  397618.395329  516042.248790
   12443.1970  390725.780000  399642.494621  519520.818588
   12447.9370  391245.500000  400974.602621  522032.418411
   12452.7050  393296.190000  403769.815564  526430.991195
   12457.4910  396918.840000  408173.964268  532866.576087
   12462.2810  399110.530000  411106.229103  537353.113836
   12467.1030  401675.160000  414391.981983  542316.696814
   12471.9400  404458.810000  417968.124272  547582.246264
   12476.8110  405355.440000  419577.722065  550223.787506
   12481.6830  408885.030000  423811.129324  556319.353569
   12486.5740  409500.620000  424986.221047  558403.906516
   12491.4960  411805.220000  427864.274900  562790.491760
   12496.4350  415295.780000  432022.054600  568868.067117
   12501.3790  417529.340000  434888.861339  573229.641693
   12506.3530  420043.910000  438027.377194  578044.186760
   12511.3450  419575.440000  438078.611628  578855.670571
   12516.3540  421058.970000  440207.917526  582474.236416
   12521.3960  423965.470000  443857.880947  588186.822772
   12526.4390  427537.970000  448168.623414  594813.346605
   12531.5040  430074.470000  451428.811685  600066.864439
   12536.5990  431217.940000  453174.582719  603374.426536
   12541.7110  433529.370000  456180.363266  608340.929908
   12546.8270  435267.840000  458637.214755  612587.516165
   12551.9750  438123.280000  462260.466241  618440.020858
   12557.1420  441637.690000  466646.438560  625249.568762
   12562.3270  444267.090000  470120.895279  630817.051093
   12567.5300  444134.500000  470656.356874  632424.549708
   12572.7510  447171.870000  474566.353646  638562.111120
   12577.9900  449688.250000  477971.666154  643996.605357
   12583.2600  451993.590000  481217.474718  649167.127081
   12588.5360  453785.940000  483931.345761  653637.652045
   12593.8300  455716.280000  486793.974318  658357.161628
   12599.1560  460000.590000  492208.970001  666512.678598
   12604.4860  461809.910000  494994.046982  671125.219762
   12609.8500  462971.220000  497064.279293  674957.720306
   12615.2170  463691.500000  498712.626177  678114.213615
   12620.6160  468082.750000  504218.399488  686511.657774
   12626.0210  471490.030000  508683.500451  693637.171785
   12631.4580  471629.250000  509594.555148  695917.709342
   12636.9140  474368.500000  513322.178247  702063.163038
   12642.3890  475319.720000  515088.907839  705546.600556
   12647.8670  480106.910000  521001.133965  714776.151084
   12653.3800  482764.090000  524640.217587  720856.600547
   12658.9100  483862.280000  526529.131628  724580.133414
   12664.4600  484768.470000  528228.172641  727997.588369
   12670.0270  486345.620000  530698.547784  732430.058763
   12675.6160  489930.750000  535340.431230  739868.571680
   12681.2220  490594.870000  536812.072515  742935.012980
   12686.8480  494418.000000  541808.053157  750807.499430
   12692.4790  497494.090000  545982.212367  757597.920587
   12698.1440  497573.190000  546897.851236  759847.413457
   12703.8250  501390.280000  551928.848220  767792.903449
   12709.5280  502543.340000  554045.057668  771750.271338
   12715.2500  505292.410000  557902.480738  778154.804122

