#XDI/1.1  GSE/2.0
# Column.1: energy eV
# Column.2: ifluor
# Column.3: i0
# Scan.end_time: 2018-02-22 17:24:53
# Scan.start_time: 2018-02-22 17:19:49
# Element.symbol:  S
# Element.edge:  K
# Mono.d_spacing:  3.13477
# Mono.name: Si 111
# Sample.formula: CaSO4.2(H2O)
# Sample.name: gypsum
# Sample.prep: powder on tape halogen-free tape
# Sample.temperature: room temperature
# Facility.Name:  APS
# Beamline.Name:  13-ID-E
# Beamline.xray_source:  3.6cm undulator
# Beamline.I0: He, 200 cm
# Beamline.If: 4-element SDD (Vortex ME-4)
# ScanParameters.ScanType: xafs
# ScanParameters.E0: 2472.000
# ScanParameters.Legend:  Start, Stop, Step, K-space, Time
# ScanParameters.Region1:    -25.000,   -10.000,     1.500  False  1.00
# ScanParameters.Region2:    -10.000,    15.000,     0.100  False  1.00
# ScanParameters.Region3:     15.000,    75.000,     1.500  False  1.00
#-------------------------
#  energy  ifluor  i0
    2446.999       245.02   9704427.00
    2448.498       242.02   9682415.00
    2449.998       265.03  10628129.00
    2451.498       331.03  11125083.00
    2452.998       324.03  11472968.00
    2454.499       317.03  11863858.00
    2455.998       353.04  11857062.00
    2457.498       366.04  11834917.00
    2458.999       405.04  11729740.00
    2460.411       386.04  11388916.00
    2461.474       405.04  11263578.00
    2462.012       382.03  11093062.00
    2462.200       399.03  11065056.00
    2462.301       416.04  11161712.00
    2462.401       409.04  11145328.00
    2462.501       375.03  11152118.00
    2462.601       443.04  11152110.00
    2462.702       410.04  11199615.00
    2462.802       429.04  11199904.00
    2462.902       418.04  11220040.00
    2463.001       475.04  11175450.00
    2463.102       492.05  11137355.00
    2463.201       463.04  11123557.00
    2463.301       392.04  11158648.00
    2463.401       457.04  11185296.00
    2463.501       471.04  11194368.00
    2463.601       476.04  11193006.00
    2463.701       466.04  11174916.00
    2463.801       487.05  11280078.00
    2463.901       481.05  11280252.00
    2464.001       546.05  11263369.00
    2464.101       458.04  11263947.00
    2464.201       474.04  11276092.00
    2464.301       494.05  11323107.00
    2464.401       515.05  11255752.00
    2464.502       532.05  11217694.00
    2464.601       532.05  11190593.00
    2464.701       494.04  11220322.00
    2464.801       496.05  11293235.00
    2464.901       533.05  11268332.00
    2465.001       575.06  11299919.00
    2465.101       553.05  11290952.00
    2465.201       538.05  11301996.00
    2465.301       560.05  11313799.00
    2465.401       520.05  11262706.00
    2465.501       530.05  11247857.00
    2465.602       565.05  11206989.00
    2465.702       595.06  11187342.00
    2465.801       588.06  11218965.00
    2465.901       539.05  11225588.00
    2466.002       579.05  11181488.00
    2466.102       554.05  11262926.00
    2466.201       606.06  11326646.00
    2466.301       602.06  11369181.00
    2466.401       578.05  11308589.00
    2466.501       582.06  11291497.00
    2466.601       619.06  11280798.00
    2466.701       613.06  11277557.00
    2466.801       649.06  11254562.00
    2466.901       604.06  11390076.00
    2467.001       626.06  11432469.00
    2467.101       650.07  11469841.00
    2467.202       606.06  11416519.00
    2467.301       651.06  11368713.00
    2467.401       698.07  11357554.00
    2467.502       639.06  11348478.00
    2467.602       668.06  11332076.00
    2467.702       675.07  11469961.00
    2467.802       698.07  11524750.00
    2467.902       727.07  11505080.00
    2468.002       625.06  11536174.00
    2468.102       699.07  11624761.00
    2468.202       742.07  11583185.00
    2468.302       688.07  11521525.00
    2468.401       774.07  11490851.00
    2468.501       760.08  11521497.00
    2468.601       796.08  11529412.00
    2468.701       786.08  11528391.00
    2468.801       824.08  11544588.00
    2468.901       791.08  11577363.00
    2469.001       799.08  11507496.00
    2469.101       804.08  11537760.00
    2469.201       802.08  11521434.00
    2469.301       812.08  11569777.00
    2469.402       854.09  11554887.00
    2469.502       896.09  11532462.00
    2469.602       878.09  11527959.00
    2469.702       944.10  11548850.00
    2469.802      1017.11  11592189.00
    2469.902      1161.12  11560040.00
    2470.002      1122.12  11578062.00
    2470.102      1148.13  11562211.00
    2470.202      1234.13  11558044.00
    2470.302      1170.13  11589432.00
    2470.402      1213.13  11585732.00
    2470.501      1257.14  11538049.00
    2470.601      1268.14  11592125.00
    2470.701      1278.14  11629065.00
    2470.802      1369.15  11597560.00
    2470.902      1473.17  11622154.00
    2471.001      1494.17  11686082.00
    2471.101      1532.18  11676121.00
    2471.201      1602.19  11667113.00
    2471.301      1624.20  11604073.00
    2471.401      1681.20  11585793.00
    2471.501      1762.21  11590579.00
    2471.602      1832.22  11645483.00
    2471.702      1779.22  11679213.00
    2471.801      1839.23  11673712.00
    2471.901      1822.23  11688297.00
    2472.001      1876.23  11712186.00
    2472.102      1842.22  11762990.00
    2472.201      1805.22  11778987.00
    2472.302      1810.22  11726547.00
    2472.401      1823.22  11731687.00
    2472.501      1797.22  11736933.00
    2472.601      1750.22  11670121.00
    2472.701      1849.23  11716729.00
    2472.802      1821.23  11747702.00
    2472.902      1863.23  11722230.00
    2473.002      1864.23  11704371.00
    2473.102      1818.22  11745957.00
    2473.202      1985.25  11760785.00
    2473.302      1954.24  11727236.00
    2473.402      1967.25  11746525.00
    2473.501      2019.25  11771986.00
    2473.601      2045.26  11770496.00
    2473.701      2217.30  11809046.00
    2473.801      2156.27  11790533.00
    2473.901      2214.29  11826629.00
    2474.001      2298.30  11824226.00
    2474.101      2282.31  11835258.00
    2474.201      2345.32  11836452.00
    2474.301      2293.29  11777622.00
    2474.401      2403.32  11769557.00
    2474.501      2496.34  11758149.00
    2474.601      2586.35  11752546.00
    2474.701      2610.36  11784395.00
    2474.801      2667.38  11814702.00
    2474.901      2855.42  11813698.00
    2475.002      2929.43  11817150.00
    2475.102      2958.43  11816674.00
    2475.202      3022.46  11821217.00
    2475.302      3043.45  11822788.00
    2475.401      3164.49  11827499.00
    2475.502      3361.52  11805865.00
    2475.601      3484.56  11772379.00
    2475.701      3479.56  11784399.00
    2475.801      3623.58  11821537.00
    2475.901      3782.62  11758644.00
    2476.001      3850.63  11792586.00
    2476.101      4030.70  11755815.00
    2476.201      4169.71  11731217.00
    2476.302      4335.75  11562748.00
    2476.402      4459.82  11940687.00
    2476.501      4779.90  11888577.00
    2476.601      5025.98  11668403.00
    2476.701      5138.04  11939775.00
    2476.801      5428.12  11927296.00
    2476.902      5910.29  11885432.00
    2477.001      6337.45  11924165.00
    2477.101      6815.64  11945821.00
    2477.202      6999.72  11947263.00
    2477.301      7234.82  11931402.00
    2477.401      7592.96  11938368.00
    2477.501      7701.01  11869277.00
    2477.601      7969.10  11791209.00
    2477.701      8109.15  11722583.00
    2477.800      8186.21  11910579.00
    2477.901      8304.24  11872738.00
    2478.001      8510.32  11704358.00
    2478.101      8561.40  11984310.00
    2478.201      8813.52  11957238.00
    2478.301      9082.65  11955399.00
    2478.402      9593.93  11948235.00
    2478.502      9800.04  11918222.00
    2478.601     10254.28  11899080.00
    2478.701     10799.61  11875959.00
    2478.801     11349.91  11808461.00
    2478.901     12318.57  11981192.00
    2479.001     13252.20  12093194.00
    2479.102     14152.88  12080028.00
    2479.201     15282.73  12050097.00
    2479.302     16630.90  12068250.00
    2479.402     17801.89  12066809.00
    2479.502     19531.62  12047473.00
    2479.602     21553.74  12073317.00
    2479.701     23720.23  12052249.00
    2479.801     25987.19  12003678.00
    2479.901     29521.10  12032596.00
    2480.002     33661.58  12089925.00
    2480.101     38364.38  12145340.00
    2480.201     44289.41  12087167.00
    2480.301     51042.89  12109304.00
    2480.401     58638.69  12071314.00
    2480.502     67458.32  12145426.00
    2480.602     76239.56  12107410.00
    2480.702     85285.00  12080186.00
    2480.802     93766.77  12069273.00
    2480.902    103051.67  12112244.00
    2481.002    110865.63  12107468.00
    2481.102    116858.81  12072924.00
    2481.201    122229.97  12074552.00
    2481.302    128103.30  12090451.00
    2481.402    131890.23  12087181.00
    2481.502    135691.34  12072256.00
    2481.601    137969.92  12144557.00
    2481.701    138654.03  12152505.00
    2481.802    139581.38  12188851.00
    2481.901    138768.04  12197482.00
    2482.001    136993.99  12189425.00
    2482.101    133368.48  12198046.00
    2482.201    129292.26  12219767.00
    2482.302    123439.61  12183245.00
    2482.402    117184.81  12160915.00
    2482.502    110604.24  12133633.00
    2482.602    102916.71  12156891.00
    2482.702     95047.58  12206961.00
    2482.801     87568.51  12235896.00
    2482.902     79674.23  12248517.00
    2483.002     72696.30  12204113.00
    2483.102     66177.42  12201079.00
    2483.202     60678.16  12214724.00
    2483.302     56264.32  12208220.00
    2483.402     51653.84  12245491.00
    2483.501     48775.38  12293281.00
    2483.601     47276.68  12292449.00
    2483.701     45190.80  12261673.00
    2483.802     43865.84  12219333.00
    2483.902     43611.95  12236914.00
    2484.002     43421.77  12273111.00
    2484.101     43578.23  12286029.00
    2484.202     43914.85  12257092.00
    2484.302     44320.20  12235601.00
    2484.402     45226.96  12256786.00
    2484.501     46189.03  12225894.00
    2484.601     46941.89  12224758.00
    2484.701     48103.60  12174837.00
    2484.802     48524.75  12201232.00
    2484.902     49355.63  12156703.00
    2485.002     49326.46  12179573.00
    2485.102     49472.19  12166276.00
    2485.202     49442.12  12159420.00
    2485.302     48463.42  12111929.00
    2485.402     47491.13  12162980.00
    2485.502     46424.71  12182416.00
    2485.602     43843.98  12155688.00
    2485.701     42755.56  12184880.00
    2485.801     41264.42  12188328.00
    2485.901     39478.84  12194082.00
    2486.001     37624.12  12207173.00
    2486.102     36200.36  12162870.00
    2486.202     34671.69  12193359.00
    2486.301     33890.32  12256298.00
    2486.401     33161.08  12204602.00
    2486.502     32085.33  12166919.00
    2486.601     31511.44  12157925.00
    2486.701     30970.51  12107740.00
    2486.801     30475.66  12136505.00
    2486.989     31384.27  12362752.00
    2487.526     31995.38  12444666.00
    2488.588     35891.22  12203864.00
    2490.000     43001.52  12022628.00
    2491.499     46348.77  12234763.00
    2492.999     41971.77  11895319.00
    2494.499     44439.91  11927830.00
    2495.999     50737.75  11828748.00
    2497.499     58365.55  11865501.00
    2498.999     60426.25  11953485.00
    2500.499     54415.41  11970648.00
    2501.999     48679.71  12256089.00
    2503.499     44849.66  12046259.00
    2504.999     44106.01  12592272.00
    2506.499     39572.49  12395184.00
    2507.999     36085.89  12203160.00
    2509.499     35781.33  12268115.00
    2510.999     36329.34  12252290.00
    2512.499     35324.36  11919749.00
    2513.999     36936.57  12280650.00
    2515.499     37962.51  12392214.00
    2516.999     38595.77  12416124.00
    2518.499     39033.92  12632190.00
    2519.999     38253.32  12467905.00
    2521.499     38525.10  12767866.00
    2522.999     37937.50  12548247.00
    2524.499     38953.52  12780487.00
    2525.999     38432.47  12684384.00
    2527.499     38812.36  12698892.00
    2528.999     38601.49  12616408.00
    2530.499     38485.28  12525503.00
    2531.999     38460.09  12535250.00
    2533.499     37995.13  12362508.00
    2534.999     38738.70  12476059.00
    2536.499     37422.94  11943433.00
    2538.000     37796.76  11909932.00
    2539.499     37792.75  12024547.00
    2540.999     37733.71  12003402.00
    2542.499     38295.61  12004235.00
    2543.999     36717.74  11525785.00
