# XDI/1.0
# Column.1: energy eV
# Column.2: i0
# Column.3: itrans
# Beamline.name: APS 13ID
# Beamline.notes: vert slits = 0.3mm
# Detector.I0: N2 10cm
# Detector.I1: N2 10cm
# Element.edge: K
# Element.symbol: Co
# Mono.d_spacing: 3.13550
# Mono.name: Si(111)
# Mono.notes: focussed, detuned 50%
# Sample.formula: Co
# Sample.name: Co foil  Room Temperature
# Sample.prep: metal foil
# Sample.reference: none
# Sample.temperature: Room Temperature
# Scan.start_time: 2001-06-26 21:21:20
# ///
#    Note: mono d_spacing is nominal!
#     data from co_foil.002
#     418 E XMU I0
#-------------
#   energy   i0   itrans
    7519.0000  161255.700000  353515.101331
    7529.0000  132048.700000  291775.101141
    7539.0000  121655.700000  270331.099962
    7549.0000  117735.700000  263229.098983
    7559.0000  116106.700000  261040.100142
    7569.0000  116202.700000  262736.100943
    7579.0000  116268.700000  264413.099697
    7589.0000  115529.700000  264224.100809
    7599.0000  115659.700000  265923.099914
    7609.0000  116147.700000  268514.100135
    7619.0000  115955.700000  269544.099539
    7629.0000  115446.700000  269649.099318
    7639.0000  116035.700000  272470.099746
    7649.0000  116061.700000  273699.099584
    7659.0000  116763.700000  276630.099919
    7669.0000  116068.700000  275903.100018
    7679.0000  116381.700000  277179.099666
    7689.0000  116997.700000  278314.101249
    7689.5000  118154.700000  280997.101064
    7690.0000  119458.700000  283941.100754
    7690.5000  119759.700000  284509.098891
    7691.0000  119883.700000  284660.099781
    7691.5000  120264.700000  285459.098700
    7692.0000  120523.700000  285992.098864
    7692.5000  120487.700000  285810.099646
    7693.0000  120599.700000  286048.099494
    7693.5000  120611.700000  285816.099286
    7694.0000  120859.700000  286314.099653
    7694.5000  120517.700000  285375.101383
    7695.0000  120230.700000  284422.101359
    7695.5000  120629.700000  285121.100094
    7696.0000  120387.700000  284282.100902
    7696.5000  120190.700000  283555.099295
    7697.0000  120858.700000  284836.099290
    7697.5000  120664.700000  284053.100616
    7698.0000  120180.700000  282590.098784
    7698.5000  120584.700000  283204.100413
    7699.0000  120353.700000  282145.099945
    7699.5000  120515.700000  282101.099315
    7700.0000  120681.700000  281917.101394
    7700.5000  120748.700000  281532.100951
    7701.0000  120689.700000  280675.098959
    7701.5000  120621.700000  279721.099004
    7702.0000  120183.700000  277823.098715
    7702.5000  120131.700000  276740.100658
    7703.0000  120562.700000  276594.100275
    7703.5000  120706.700000  275514.099761
    7704.0000  120251.700000  272921.101003
    7704.5000  120725.700000  272020.099842
    7705.0000  120761.700000  269664.100493
    7705.5000  120567.700000  266019.100047
    7706.0000  120877.700000  263067.099456
    7706.5000  119952.700000  255332.099397
    7707.0000  120317.700000  247160.099886
    7707.5000  120045.700000  231946.099195
    7708.0000  121143.700000  210410.100157
    7708.5000  120563.700000  175272.100076
    7709.0000  121004.700000  144950.100371
    7709.5000  120264.700000  121534.100000
    7710.0000  120253.700000  103555.099953
    7710.5000  120012.700000  89915.099886
    7711.0000  120398.700000  81289.099939
    7711.5000  120553.700000  75043.100125
    7712.0000  120194.700000  70624.100136
    7712.5000  120745.700000  68849.099858
    7713.0000  120635.700000  68109.099941
    7713.5000  121284.700000  68360.100229
    7714.0000  120810.700000  67292.100190
    7714.5000  120582.700000  64493.100210
    7715.0000  120677.700000  59725.099874
    7715.5000  121120.700000  53567.099754
    7716.0000  120388.700000  47123.099906
    7716.5000  120939.700000  41998.099795
    7717.0000  120887.700000  36880.100195
    7717.5000  120278.700000  32257.099223
    7718.0000  120692.700000  28753.098799
    7718.5000  120665.700000  25537.100391
    7719.0000  120385.700000  22823.099409
    7719.5000  120347.700000  20831.099808
    7720.0000  120660.700000  19216.100098
    7720.5000  120719.700000  17821.099658
    7721.0000  120464.700000  16527.100101
    7721.5000  120612.700000  15195.099667
    7722.0000  120023.700000  13733.100632
    7722.5000  120478.700000  12524.099821
    7723.0000  119959.700000  11254.100522
    7723.5000  120517.700000  10220.099598
    7724.0000  121167.700000  9456.100005
    7724.5000  120689.700000  8695.100351
    7725.0000  120693.700000  8144.099939
    7725.5000  120862.700000  7687.099933
    7726.0000  120821.700000  7295.100111
    7726.5000  120289.700000  6940.100114
    7727.0000  120661.700000  6665.100032
    7727.5000  120418.700000  6400.100136
    7728.0000  120505.700000  6210.099726
    7728.5000  120213.700000  6052.099837
    7729.0000  120699.700000  5990.100216
    7729.5000  120080.700000  5906.100010
    7730.0000  120080.700000  5878.100213
    7730.5000  120305.700000  5855.100159
    7731.0000  120477.700000  5830.100121
    7731.5000  120601.700000  5797.099930
    7732.0000  120904.700000  5785.099915
    7732.5000  120257.700000  5702.100069
    7733.0000  120557.700000  5704.099783
    7733.5000  120636.700000  5739.100265
    7734.0000  120781.700000  5803.100153
    7734.9850  120441.700000  5980.100169
    7735.9880  120596.700000  6232.099789
    7737.0110  120574.700000  6519.100315
    7738.0530  120486.700000  6728.099916
    7739.1140  120329.700000  6933.100220
    7740.1940  120009.700000  7112.100100
    7741.2920  120409.700000  7278.099675
    7742.4110  120184.700000  7374.099744
    7743.5470  120444.700000  7479.099720
    7744.7030  120419.700000  7468.100184
    7745.8780  119905.700000  7346.100297
    7747.0720  120500.700000  7193.100208
    7748.2850  119678.700000  6847.100321
    7749.5170  120177.700000  6560.100223
    7750.7690  120227.700000  6177.100242
    7752.0390  120241.700000  5782.100262
    7753.3280  116979.700000  5252.100099
    7754.6360  119300.700000  5022.100119
    7755.9630  123036.700000  4900.099862
    7757.3090  122003.700000  4675.100090
    7758.6740  120583.700000  4549.100029
    7760.0580  120928.700000  4591.099857
    7761.4610  120839.700000  4766.100064
    7762.8840  120168.700000  5107.099798
    7764.3250  120279.700000  5541.100149
    7765.7850  119987.700000  6075.099924
    7767.2650  120453.700000  6750.100183
    7768.7630  120549.700000  7392.099657
    7770.2800  120684.700000  7862.100104
    7771.8160  120570.700000  8210.099994
    7773.3720  120086.700000  8429.099807
    7774.9460  120652.700000  8679.100295
    7776.5400  120207.700000  8832.099718
    7778.1520  120478.700000  8973.099650
    7779.7840  120398.700000  8941.100102
    7781.4340  120286.700000  8763.100318
    7783.1040  119852.700000  8424.100364
    7784.7920  119839.700000  8119.100047
    7786.5000  119850.700000  7777.099871
    7788.2260  120046.700000  7448.099757
    7789.9720  120004.700000  7134.100032
    7791.7360  120482.700000  6957.099675
    7793.5200  120593.700000  6812.100010
    7795.3230  119776.700000  6571.100196
    7797.1450  119822.700000  6280.100291
    7798.9850  120196.700000  5929.100217
    7800.8450  120040.700000  5520.099867
    7802.7240  120115.700000  5119.100013
    7804.6210  120647.700000  4844.099801
    7806.5380  119586.700000  4634.100120
    7808.4740  120429.700000  4700.099977
    7810.4290  120093.700000  4847.099920
    7812.4020  120338.700000  5077.100175
    7814.3960  120356.700000  5313.099812
    7816.4070  120181.700000  5621.099944
    7818.4380  120275.700000  6074.099863
    7820.4880  120371.700000  6556.100272
    7822.5570  120114.700000  7059.099682
    7824.6450  120470.700000  7688.099931
    7826.7520  119777.700000  8257.099905
    7828.8780  120034.700000  8819.100385
    7831.0230  119305.700000  9217.099559
    7833.1880  120163.700000  9569.100217
    7835.3700  120277.700000  9667.099691
    7837.5720  120352.700000  9572.099822
    7839.7930  119882.700000  9403.100400
    7842.0340  119719.700000  9256.099847
    7844.2930  119623.700000  9130.100319
    7846.5710  119962.700000  8973.100434
    7848.8680  120026.700000  8778.100305
    7851.1850  120037.700000  8551.100261
    7853.5200  119759.700000  8302.100334
    7855.8740  119552.700000  7982.100348
    7858.2480  119921.700000  7571.099716
    7860.6400  120076.700000  7091.100203
    7863.0510  119859.700000  6582.100321
    7865.4810  120001.700000  6170.099779
    7867.9310  120502.700000  5814.099753
    7870.3990  119749.700000  5503.099787
    7872.8870  119760.700000  5328.099911
    7875.3930  118850.700000  5245.099875
    7877.9180  120595.700000  5425.099979
    7880.4630  119971.700000  5670.100155
    7883.0260  120219.700000  6134.100209
    7885.6090  120567.700000  6793.100202
    7888.2100  119233.700000  7464.099789
    7890.8310  119525.700000  8402.100306
    7893.4710  119737.700000  9377.099721
    7896.1290  119629.700000  10160.099531
    7898.8070  117759.700000  10429.100330
    7901.5040  120294.700000  10697.099880
    7904.2190  120197.700000  10418.100095
    7906.9540  119897.700000  10036.099866
    7909.7080  120254.700000  9715.100168
    7912.4800  119912.700000  9393.100008
    7915.2720  119852.700000  9213.100041
    7918.0830  119544.700000  9092.099594
    7920.9130  118694.700000  8977.099640
    7923.7620  119121.700000  9015.100094
    7926.6290  119775.700000  9031.099556
    7929.5170  120222.700000  9081.100232
    7932.4220  120291.700000  9078.100062
    7935.3470  120787.700000  9114.099947
    7938.2910  119452.700000  8936.100221
    7941.2540  119918.700000  8842.100072
    7944.2360  119976.700000  8611.099902
    7947.2370  119485.700000  8218.099672
    7950.2570  119331.700000  7927.100330
    7953.2960  119713.700000  7714.100275
    7956.3540  119288.700000  7555.099800
    7959.4310  119892.700000  7620.099872
    7962.5270  119661.700000  7789.099800
    7965.6430  119684.700000  8200.100291
    7968.7770  119545.700000  8645.100334
    7971.9300  119361.700000  9189.099816
    7975.1020  119111.700000  9703.099866
    7978.2930  120321.700000  10238.100344
    7981.5030  119978.700000  10452.100124
    7984.7330  119466.700000  10637.099799
    7987.9810  120310.700000  11042.100256
    7991.2490  120292.700000  11292.099699
    7994.5350  119146.700000  11330.100066
    7997.8400  119112.700000  11465.099602
    8001.1650  119505.700000  11541.099906
    8004.5080  119070.700000  11362.099761
    8007.8700  119134.700000  11237.099794
    8011.2520  119280.700000  11075.099931
    8014.6520  120285.700000  11087.099735
    8018.0720  119362.700000  10777.100477
    8021.5100  119714.700000  10709.099622
    8024.9680  119484.700000  10636.099514
    8028.4440  118883.700000  10561.099628
    8031.9400  119936.700000  10568.099724
    8035.4540  119553.700000  10429.099657
    8038.9880  120096.700000  10385.099637
    8042.5410  119368.700000  10267.100147
    8046.1120  119479.700000  10273.099528
    8049.7030  119217.700000  10303.100131
    8053.3130  120795.700000  10619.100238
    8056.9410  119865.700000  10681.100266
    8060.5890  119536.700000  10942.100027
    8064.2560  119526.700000  11267.100031
    8067.9410  119196.700000  11516.100154
    8071.6460  119645.700000  11780.100099
    8075.3700  119189.700000  11899.099697
    8079.1130  119993.700000  12202.099675
    8082.8750  119218.700000  12267.100485
    8086.6560  119643.700000  12588.100455
    8090.4560  119779.700000  12875.100112
    8094.2740  119312.700000  12982.099899
    8098.1120  119325.700000  13111.100387
    8101.9690  119525.700000  13266.100025
    8105.8460  120466.700000  13504.100313
    8109.7400  118899.700000  13277.100450
    8113.6540  119508.700000  13319.099691
    8117.5870  119927.700000  13334.099966
    8121.5400  119022.700000  13152.099862
    8125.5110  119632.700000  13132.100012
    8129.5010  119000.700000  13020.099456
    8133.5100  119710.700000  13124.099528
    8137.5380  119215.700000  13056.099998
    8141.5850  118924.700000  13034.100255
    8145.6510  119794.700000  13154.100621
    8149.7370  120342.700000  13230.099594
    8153.8410  119612.700000  13210.100458
    8157.9640  119370.700000  13317.099381
    8162.1060  119051.700000  13505.099469
    8166.2680  120520.700000  13841.099939
    8170.4480  120044.700000  13993.100314
    8174.6470  119879.700000  14169.100039
    8178.8660  119445.700000  14275.100200
    8183.1030  119598.700000  14405.099443
    8187.3600  120323.700000  14617.100509
    8191.6350  118198.700000  14522.099703
    8195.9300  119976.700000  14879.100202
    8200.2430  119929.700000  15027.100001
    8204.5750  119826.700000  15218.100356
    8208.9270  120266.700000  15528.099858
    8213.2980  119128.700000  15480.099895
    8217.6880  119575.700000  15727.100073
    8222.0960  119582.700000  15908.099503
    8226.5230  118478.700000  15902.100344
    8230.9700  119113.700000  16063.099728
    8235.4360  119791.700000  16214.099466
    8239.9200  120452.700000  16365.100429
    8244.4240  119166.700000  16195.100418
    8248.9460  119139.700000  16170.099940
    8253.4880  119435.700000  16203.099502
    8258.0490  119613.700000  16217.100687
    8262.6290  119699.700000  16217.099436
    8267.2280  119285.700000  16223.100057
    8271.8460  119598.700000  16378.099923
    8276.4820  119850.700000  16536.100525
    8281.1390  119495.700000  16645.100144
    8285.8130  119147.700000  16765.099250
    8290.5070  120168.700000  17162.100423
    8295.2200  119506.700000  17208.100577
    8299.9520  118930.700000  17307.100841
    8304.7030  118943.700000  17494.099837
    8309.4730  119482.700000  17747.099445
    8314.2620  119058.700000  17834.099890
    8319.0700  118847.700000  17969.100457
    8323.8960  119157.700000  18272.100358
    8328.7430  117382.700000  18072.100443
    8333.6080  96788.700000  15158.100142
    8338.4920  139070.700000  21943.099948
    8343.3960  128906.700000  20345.099801
    8348.3170  123640.700000  19587.099854
    8353.2590  121779.700000  19396.099220
    8358.2190  119837.700000  19273.099731
    8363.1980  119479.700000  19261.099317
    8368.1960  119227.700000  19346.099253
    8373.2140  119356.700000  19493.100620
    8378.2500  119794.700000  19687.100893
    8383.3060  118988.700000  19627.099339
    8388.3800  118615.700000  19709.099951
    8393.4730  119710.700000  20094.099178
    8398.5850  119566.700000  20055.099783
    8403.7170  119129.700000  20099.099550
    8408.8670  116888.700000  19854.099306
    8414.0370  120291.700000  20654.099577
    8419.2250  119071.700000  20492.099727
    8424.4330  119449.700000  20728.099888
    8429.6590  119339.700000  20963.099979
    8434.9040  119255.700000  21133.099908
    8440.1690  118551.700000  21117.100286
    8445.4530  118894.700000  21345.100476
    8450.7560  119487.700000  21712.100616
    8456.0770  119159.700000  21825.100581
    8461.4180  119039.700000  21982.099233
    8466.7770  119830.700000  22384.100624
    8472.1560  119690.700000  22573.099626
    8477.5540  119010.700000  22489.099048
    8482.9710  119127.700000  22698.100146
    8488.4060  119601.700000  23008.100635
    8493.8610  119184.700000  23061.099431
    8499.3350  118572.700000  23123.098999
    8504.8270  119302.700000  23509.099545
    8510.3390  119148.700000  23661.101028
    8515.8700  119733.700000  23852.101105
    8521.4200  119793.700000  23992.099692
    8526.9880  119803.700000  24213.099056
    8532.5770  119645.700000  24260.098788
    8538.1840  119458.700000  24463.101105
    8543.8100  119311.700000  24589.101010
    8549.4540  120251.700000  25015.100089
    8555.1180  119594.700000  24956.101120
    8560.8020  119290.700000  25064.100699
    8566.5040  119777.700000  25365.100287
    8572.2250  117636.700000  25265.099111
    8577.9650  119955.700000  25724.100316
    8583.7240  120078.700000  25914.101012
    8589.5020  119370.700000  26149.100108
    8595.2990  119659.700000  26296.101095
    8601.1150  119448.700000  26456.100925
    8606.9500  119843.700000  26768.100368
    8612.8050  120042.700000  27070.100408
    8618.6780  119130.700000  26996.099962
    8624.5700  119606.700000  27373.099471
    8630.4810  119708.700000  27612.100253
    8636.4120  119251.700000  27637.100344
    8642.3610  119459.700000  28018.101292
    8648.3290  119077.700000  28070.099111
    8654.3160  120263.700000  28619.100135
    8660.3230  118957.700000  28467.100946
    8666.3490  119901.700000  29001.099423
    8672.3930  119851.700000  29154.099722
    8678.4560  118843.700000  29155.100869
    8684.5390  120545.700000  29709.101128
    8690.6410  119530.700000  29655.100734
    8696.7610  119631.700000  29935.098552
    8702.9000  119708.700000  30130.100589
    8709.0590  119506.700000  30312.098909
    8715.2360  119934.700000  30701.101333
    8721.4340  119487.700000  30852.100551
    8727.6480  119165.700000  30977.101230
    8733.8830  119838.700000  31322.098535
    8740.1370  101241.700000  27032.099421
    8746.4100  131195.700000  35091.098755
    8752.7010  125320.700000  33647.099350
    8759.0120  122856.700000  33212.098943
    8765.3420  120709.700000  32823.098477
    8771.6900  118813.700000  32554.099979
    8778.0590  120856.700000  33314.100515
    8784.4450  118653.700000  32975.101166
    8790.8510  119797.700000  33634.098438
    8797.2750  118733.700000  33530.100921
    8803.7200  119301.700000  34062.101688
    8810.1830  118009.700000  33915.099374
    8816.6640  119593.700000  34613.101434
    8823.1660  118816.700000  34631.101633
    8829.6860  119875.700000  35230.101471
    8836.2250  118754.700000  35168.099978
    8842.7820  119589.700000  35671.099296
    8849.3590  120116.700000  36079.100718
    8855.9550  119508.700000  36169.100322
    8862.5700  118857.700000  36190.099222
    8869.2050  120228.700000  36910.101328
    8875.8570  119053.700000  36807.099650
    8882.5300  119311.700000  37181.101068
    8889.2210  119432.700000  37460.098737
    8895.9320  119899.700000  37892.100487
    8902.6600  119104.700000  37920.100899
    8909.4080  119632.700000  38367.099770
    8916.1760  118940.700000  38412.101362
    8922.9620  120138.700000  39080.100884
    8929.7680  120401.700000  39456.099642
    8936.5920  119721.700000  39526.098794
    8943.4350  120500.700000  40055.098230

